Zeit  1 - Standardmessrate [s]	Maytec [mm]	Kraft [N]	Standardwegaufnehmer [mm]	Pyrometer [°C]	Drehwinkel [V]	MX840_0_CH 6 [V]	MX840_0_CH 7 [V]	MX840_0_CH 8 [V]
0	0.04709	122.99	0.8253	300.09	-1000000	-1000000	-1000000	-1000000	
0.02000	0.04711	123.52	0.8253	300.10	-1000000	-1000000	-1000000	-1000000	
0.04000	0.04710	123.61	0.8254	300.15	-1000000	-1000000	-1000000	-1000000	
0.06000	0.04709	123.64	0.8254	300.18	-1000000	-1000000	-1000000	-1000000	
0.08000	0.04710	123.56	0.8255	300.14	-1000000	-1000000	-1000000	-1000000	
0.1000	0.04712	123.34	0.8258	300.09	-1000000	-1000000	-1000000	-1000000	
0.1200	0.04713	123.33	0.8260	300.10	-1000000	-1000000	-1000000	-1000000	
0.1400	0.04715	123.53	0.8260	300.15	-1000000	-1000000	-1000000	-1000000	
0.1600	0.04718	123.59	0.8261	300.16	-1000000	-1000000	-1000000	-1000000	
0.1800	0.04727	123.66	0.8261	300.11	-1000000	-1000000	-1000000	-1000000	
0.2000	0.04732	123.72	0.8261	300.08	-1000000	-1000000	-1000000	-1000000	
0.2200	0.04734	123.74	0.8260	300.13	-1000000	-1000000	-1000000	-1000000	
0.2400	0.04732	123.72	0.8260	300.16	-1000000	-1000000	-1000000	-1000000	
0.2600	0.04736	123.55	0.8261	300.14	-1000000	-1000000	-1000000	-1000000	
0.2800	0.04740	123.50	0.8262	300.08	-1000000	-1000000	-1000000	-1000000	
0.3000	0.04736	123.64	0.8264	300.10	-1000000	-1000000	-1000000	-1000000	
0.3200	0.04738	123.63	0.8266	300.15	-1000000	-1000000	-1000000	-1000000	
0.3400	0.04736	123.52	0.8266	300.17	-1000000	-1000000	-1000000	-1000000	
0.3600	0.04736	123.38	0.8267	300.12	-1000000	-1000000	-1000000	-1000000	
0.3800	0.04739	123.34	0.8267	300.08	-1000000	-1000000	-1000000	-1000000	
0.4000	0.04741	123.43	0.8267	300.12	-1000000	-1000000	-1000000	-1000000	
0.4200	0.04737	123.58	0.8266	300.17	-1000000	-1000000	-1000000	-1000000	
0.4400	0.04732	123.66	0.8266	300.15	-1000000	-1000000	-1000000	-1000000	
0.4600	0.04735	123.54	0.8266	300.09	-1000000	-1000000	-1000000	-1000000	
0.4800	0.04743	123.44	0.8268	300.08	-1000000	-1000000	-1000000	-1000000	
0.5000	0.04751	123.44	0.8272	300.14	-1000000	-1000000	-1000000	-1000000	
0.5200	0.04754	123.53	0.8274	300.17	-1000000	-1000000	-1000000	-1000000	
0.5400	0.04757	123.49	0.8274	300.13	-1000000	-1000000	-1000000	-1000000	
0.5600	0.04758	123.53	0.8274	300.08	-1000000	-1000000	-1000000	-1000000	
0.5800	0.04757	123.59	0.8274	300.11	-1000000	-1000000	-1000000	-1000000	
0.6000	0.04763	123.60	0.8275	300.16	-1000000	-1000000	-1000000	-1000000	
0.6200	0.04767	123.65	0.8274	300.16	-1000000	-1000000	-1000000	-1000000	
0.6400	0.04769	123.62	0.8274	300.10	-1000000	-1000000	-1000000	-1000000	
0.6600	0.04771	123.59	0.8274	300.09	-1000000	-1000000	-1000000	-1000000	
0.6800	0.04774	123.67	0.8275	300.13	-1000000	-1000000	-1000000	-1000000	
0.7000	0.04776	123.67	0.8279	300.17	-1000000	-1000000	-1000000	-1000000	
0.7200	0.04777	123.47	0.8282	300.14	-1000000	-1000000	-1000000	-1000000	
0.7400	0.04776	123.30	0.8282	300.09	-1000000	-1000000	-1000000	-1000000	
0.7600	0.04775	123.30	0.8281	300.10	-1000000	-1000000	-1000000	-1000000	
0.7800	0.04776	123.33	0.8280	300.15	-1000000	-1000000	-1000000	-1000000	
0.8000	0.04780	123.47	0.8280	300.17	-1000000	-1000000	-1000000	-1000000	
0.8200	0.04780	123.51	0.8281	300.11	-1000000	-1000000	-1000000	-1000000	
0.8400	0.04784	123.59	0.8281	300.08	-1000000	-1000000	-1000000	-1000000	
0.8600	0.04785	123.72	0.8281	300.12	-1000000	-1000000	-1000000	-1000000	
0.8800	0.04784	123.81	0.8282	300.17	-1000000	-1000000	-1000000	-1000000	
0.9000	0.04785	123.78	0.8285	300.15	-1000000	-1000000	-1000000	-1000000	
0.9200	0.04791	123.49	0.8286	300.10	-1000000	-1000000	-1000000	-1000000	
0.9400	0.04794	123.38	0.8287	300.09	-1000000	-1000000	-1000000	-1000000	
0.9600	0.04794	123.51	0.8286	300.15	-1000000	-1000000	-1000000	-1000000	
0.9800	0.04796	123.63	0.8287	300.18	-1000000	-1000000	-1000000	-1000000	
1.000	0.04799	123.82	0.8288	300.14	-1000000	-1000000	-1000000	-1000000	
1.020	0.04797	123.89	0.8288	300.09	-1000000	-1000000	-1000000	-1000000	
1.040	0.04796	123.77	0.8288	300.10	-1000000	-1000000	-1000000	-1000000	
1.060	0.04797	123.63	0.8288	300.16	-1000000	-1000000	-1000000	-1000000	
1.080	0.04795	123.49	0.8287	300.17	-1000000	-1000000	-1000000	-1000000	
1.100	0.04796	123.42	0.8289	300.12	-1000000	-1000000	-1000000	-1000000	
1.120	0.04802	123.09	0.8293	300.08	-1000000	-1000000	-1000000	-1000000	
1.140	0.04808	123.16	0.8294	300.12	-1000000	-1000000	-1000000	-1000000	
1.160	0.04811	123.39	0.8294	300.16	-1000000	-1000000	-1000000	-1000000	
1.180	0.04814	123.57	0.8294	300.16	-1000000	-1000000	-1000000	-1000000	
1.200	0.04815	123.44	0.8294	300.10	-1000000	-1000000	-1000000	-1000000	
1.220	0.04816	123.37	0.8294	300.09	-1000000	-1000000	-1000000	-1000000	
1.240	0.04815	123.56	0.8294	300.14	-1000000	-1000000	-1000000	-1000000	
1.260	0.04814	123.64	0.8294	300.17	-1000000	-1000000	-1000000	-1000000	
1.280	0.04818	123.53	0.8298	300.13	-1000000	-1000000	-1000000	-1000000	
1.300	0.04823	123.59	0.8301	300.08	-1000000	-1000000	-1000000	-1000000	
1.320	0.04830	123.46	0.8301	300.10	-1000000	-1000000	-1000000	-1000000	
1.340	0.04835	123.38	0.8300	300.16	-1000000	-1000000	-1000000	-1000000	
1.360	0.04835	123.44	0.8301	300.16	-1000000	-1000000	-1000000	-1000000	
1.380	0.04831	123.46	0.8301	300.11	-1000000	-1000000	-1000000	-1000000	
1.400	0.04827	123.56	0.8300	300.09	-1000000	-1000000	-1000000	-1000000	
1.420	0.04831	123.59	0.8300	300.13	-1000000	-1000000	-1000000	-1000000	
1.440	0.04835	123.56	0.8301	300.17	-1000000	-1000000	-1000000	-1000000	
1.460	0.04839	123.55	0.8301	300.15	-1000000	-1000000	-1000000	-1000000	
1.480	0.04846	123.52	0.8300	300.09	-1000000	-1000000	-1000000	-1000000	
1.500	0.04851	123.24	0.8303	300.10	-1000000	-1000000	-1000000	-1000000	
1.520	0.04851	122.64	0.8306	300.15	-1000000	-1000000	-1000000	-1000000	
1.540	0.04851	122.76	0.8307	300.17	-1000000	-1000000	-1000000	-1000000	
1.560	0.04850	123.18	0.8308	300.13	-1000000	-1000000	-1000000	-1000000	
1.580	0.04851	123.47	0.8307	300.09	-1000000	-1000000	-1000000	-1000000	
1.600	0.04853	123.46	0.8307	300.14	-1000000	-1000000	-1000000	-1000000	
1.620	0.04853	123.45	0.8307	300.18	-1000000	-1000000	-1000000	-1000000	
1.640	0.04857	123.48	0.8307	300.18	-1000000	-1000000	-1000000	-1000000	
1.660	0.04861	123.48	0.8307	300.13	-1000000	-1000000	-1000000	-1000000	
1.680	0.04858	123.48	0.8309	300.08	-1000000	-1000000	-1000000	-1000000	
1.700	0.04859	123.49	0.8313	300.11	-1000000	-1000000	-1000000	-1000000	
1.720	0.04864	123.51	0.8314	300.16	-1000000	-1000000	-1000000	-1000000	
1.740	0.04861	123.57	0.8314	300.17	-1000000	-1000000	-1000000	-1000000	
1.760	0.04861	123.45	0.8313	300.11	-1000000	-1000000	-1000000	-1000000	
1.780	0.04865	123.38	0.8313	300.09	-1000000	-1000000	-1000000	-1000000	
1.800	0.04871	123.37	0.8314	300.13	-1000000	-1000000	-1000000	-1000000	
1.820	0.04878	123.31	0.8314	300.17	-1000000	-1000000	-1000000	-1000000	
1.840	0.04877	123.31	0.8314	300.15	-1000000	-1000000	-1000000	-1000000	
1.860	0.04875	123.43	0.8315	300.09	-1000000	-1000000	-1000000	-1000000	
1.880	0.04877	123.52	0.8315	300.09	-1000000	-1000000	-1000000	-1000000	
1.900	0.04874	123.47	0.8318	300.14	-1000000	-1000000	-1000000	-1000000	
1.920	0.04874	123.39	0.8320	300.17	-1000000	-1000000	-1000000	-1000000	
1.940	0.04879	123.29	0.8321	300.14	-1000000	-1000000	-1000000	-1000000	
1.960	0.04884	123.30	0.8321	300.09	-1000000	-1000000	-1000000	-1000000	
1.980	0.04884	123.33	0.8321	300.11	-1000000	-1000000	-1000000	-1000000	
2.000	0.04886	123.28	0.8320	300.16	-1000000	-1000000	-1000000	-1000000	
2.020	0.04890	123.86	0.8320	300.17	-1000000	-1000000	-1000000	-1000000	
2.040	0.04894	124.63	0.8320	300.12	-1000000	-1000000	-1000000	-1000000	
2.060	0.04896	124.95	0.8321	300.09	-1000000	-1000000	-1000000	-1000000	
2.080	0.04897	125.11	0.8322	300.12	-1000000	-1000000	-1000000	-1000000	
2.100	0.04895	125.14	0.8324	300.17	-1000000	-1000000	-1000000	-1000000	
2.120	0.04892	124.69	0.8326	300.15	-1000000	-1000000	-1000000	-1000000	
2.140	0.04894	124.08	0.8327	300.10	-1000000	-1000000	-1000000	-1000000	
2.160	0.04903	123.73	0.8327	300.09	-1000000	-1000000	-1000000	-1000000	
2.180	0.04909	123.49	0.8329	300.14	-1000000	-1000000	-1000000	-1000000	
2.200	0.04908	123.34	0.8328	300.17	-1000000	-1000000	-1000000	-1000000	
2.220	0.04906	123.49	0.8328	300.14	-1000000	-1000000	-1000000	-1000000	
2.240	0.04903	123.67	0.8328	300.09	-1000000	-1000000	-1000000	-1000000	
2.260	0.04903	123.65	0.8328	300.11	-1000000	-1000000	-1000000	-1000000	
2.280	0.04908	123.55	0.8327	300.16	-1000000	-1000000	-1000000	-1000000	
2.300	0.04917	123.63	0.8329	300.17	-1000000	-1000000	-1000000	-1000000	
2.320	0.04918	123.62	0.8333	300.12	-1000000	-1000000	-1000000	-1000000	
2.340	0.04918	123.59	0.8335	300.08	-1000000	-1000000	-1000000	-1000000	
2.360	0.04919	123.64	0.8335	300.12	-1000000	-1000000	-1000000	-1000000	
2.380	0.04918	123.71	0.8335	300.17	-1000000	-1000000	-1000000	-1000000	
2.400	0.04919	123.86	0.8335	300.15	-1000000	-1000000	-1000000	-1000000	
2.420	0.04919	124.39	0.8334	300.09	-1000000	-1000000	-1000000	-1000000	
2.440	0.04922	124.92	0.8334	300.09	-1000000	-1000000	-1000000	-1000000	
2.460	0.04919	124.94	0.8334	300.15	-1000000	-1000000	-1000000	-1000000	
2.480	0.04923	124.23	0.8334	300.17	-1000000	-1000000	-1000000	-1000000	
2.500	0.04932	123.66	0.8335	300.13	-1000000	-1000000	-1000000	-1000000	
2.520	0.04935	123.41	0.8339	300.08	-1000000	-1000000	-1000000	-1000000	
2.540	0.04934	123.37	0.8341	300.11	-1000000	-1000000	-1000000	-1000000	
2.560	0.04934	123.40	0.8342	300.16	-1000000	-1000000	-1000000	-1000000	
2.580	0.04934	123.35	0.8342	300.16	-1000000	-1000000	-1000000	-1000000	
2.600	0.04937	123.32	0.8341	300.11	-1000000	-1000000	-1000000	-1000000	
2.620	0.04941	123.41	0.8340	300.08	-1000000	-1000000	-1000000	-1000000	
2.640	0.04939	123.40	0.8340	300.13	-1000000	-1000000	-1000000	-1000000	
2.660	0.04940	123.45	0.8340	300.17	-1000000	-1000000	-1000000	-1000000	
2.680	0.04945	123.52	0.8340	300.15	-1000000	-1000000	-1000000	-1000000	
2.700	0.04947	123.49	0.8341	300.09	-1000000	-1000000	-1000000	-1000000	
2.720	0.04945	123.44	0.8344	300.09	-1000000	-1000000	-1000000	-1000000	
2.740	0.04947	123.39	0.8347	300.15	-1000000	-1000000	-1000000	-1000000	
2.760	0.04953	123.48	0.8348	300.17	-1000000	-1000000	-1000000	-1000000	
2.780	0.04958	123.72	0.8348	300.12	-1000000	-1000000	-1000000	-1000000	
2.800	0.04964	123.62	0.8348	300.08	-1000000	-1000000	-1000000	-1000000	
2.820	0.04968	123.45	0.8348	300.11	-1000000	-1000000	-1000000	-1000000	
2.840	0.04967	123.42	0.8349	300.16	-1000000	-1000000	-1000000	-1000000	
2.860	0.04966	123.62	0.8349	300.15	-1000000	-1000000	-1000000	-1000000	
2.880	0.04969	123.64	0.8348	300.09	-1000000	-1000000	-1000000	-1000000	
2.900	0.04969	123.65	0.8349	300.09	-1000000	-1000000	-1000000	-1000000	
2.920	0.04970	123.50	0.8352	300.14	-1000000	-1000000	-1000000	-1000000	
2.940	0.04974	123.31	0.8355	300.17	-1000000	-1000000	-1000000	-1000000	
2.960	0.04978	123.29	0.8355	300.13	-1000000	-1000000	-1000000	-1000000	
2.980	0.04976	123.35	0.8354	300.08	-1000000	-1000000	-1000000	-1000000	
3.000	0.04977	123.46	0.8355	300.10	-1000000	-1000000	-1000000	-1000000	
3.020	0.04980	123.45	0.8355	300.15	-1000000	-1000000	-1000000	-1000000	
3.040	0.04979	123.29	0.8355	300.16	-1000000	-1000000	-1000000	-1000000	
3.060	0.04975	123.20	0.8355	300.10	-1000000	-1000000	-1000000	-1000000	
3.080	0.04973	123.14	0.8356	300.09	-1000000	-1000000	-1000000	-1000000	
3.100	0.04976	123.28	0.8356	300.13	-1000000	-1000000	-1000000	-1000000	
3.120	0.04981	123.50	0.8357	300.17	-1000000	-1000000	-1000000	-1000000	
3.140	0.04988	123.71	0.8360	300.14	-1000000	-1000000	-1000000	-1000000	
3.160	0.04995	123.67	0.8361	300.09	-1000000	-1000000	-1000000	-1000000	
3.180	0.04993	123.59	0.8362	300.10	-1000000	-1000000	-1000000	-1000000	
3.200	0.04991	123.53	0.8362	300.15	-1000000	-1000000	-1000000	-1000000	
3.220	0.04989	123.47	0.8362	300.17	-1000000	-1000000	-1000000	-1000000	
3.240	0.04992	123.31	0.8362	300.12	-1000000	-1000000	-1000000	-1000000	
3.260	0.04999	123.30	0.8361	300.08	-1000000	-1000000	-1000000	-1000000	
3.280	0.05007	123.44	0.8362	300.12	-1000000	-1000000	-1000000	-1000000	
3.300	0.05007	123.34	0.8361	300.17	-1000000	-1000000	-1000000	-1000000	
3.320	0.05007	123.36	0.8363	300.16	-1000000	-1000000	-1000000	-1000000	
3.340	0.05007	123.53	0.8366	300.10	-1000000	-1000000	-1000000	-1000000	
3.360	0.05006	123.49	0.8368	300.09	-1000000	-1000000	-1000000	-1000000	
3.380	0.05005	123.47	0.8369	300.13	-1000000	-1000000	-1000000	-1000000	
3.400	0.05005	123.48	0.8369	300.17	-1000000	-1000000	-1000000	-1000000	
3.420	0.05009	123.57	0.8368	300.14	-1000000	-1000000	-1000000	-1000000	
3.440	0.05010	123.59	0.8368	300.09	-1000000	-1000000	-1000000	-1000000	
3.460	0.05013	123.45	0.8368	300.10	-1000000	-1000000	-1000000	-1000000	
3.480	0.05014	123.37	0.8368	300.15	-1000000	-1000000	-1000000	-1000000	
3.500	0.05014	123.36	0.8368	300.17	-1000000	-1000000	-1000000	-1000000	
3.520	0.05021	123.41	0.8369	300.12	-1000000	-1000000	-1000000	-1000000	
3.540	0.05030	123.45	0.8371	300.08	-1000000	-1000000	-1000000	-1000000	
3.560	0.05037	123.34	0.8373	300.12	-1000000	-1000000	-1000000	-1000000	
3.580	0.05036	123.28	0.8374	300.17	-1000000	-1000000	-1000000	-1000000	
3.600	0.05034	123.35	0.8375	300.16	-1000000	-1000000	-1000000	-1000000	
3.620	0.05035	123.51	0.8374	300.11	-1000000	-1000000	-1000000	-1000000	
3.640	0.05040	123.46	0.8374	300.09	-1000000	-1000000	-1000000	-1000000	
3.660	0.05040	123.37	0.8374	300.14	-1000000	-1000000	-1000000	-1000000	
3.680	0.05038	123.46	0.8375	300.17	-1000000	-1000000	-1000000	-1000000	
3.700	0.05034	123.57	0.8376	300.14	-1000000	-1000000	-1000000	-1000000	
3.720	0.05033	123.52	0.8375	300.09	-1000000	-1000000	-1000000	-1000000	
3.740	0.05036	123.44	0.8375	300.10	-1000000	-1000000	-1000000	-1000000	
3.760	0.05045	122.95	0.8378	300.15	-1000000	-1000000	-1000000	-1000000	
3.780	0.05051	122.14	0.8381	300.17	-1000000	-1000000	-1000000	-1000000	
3.800	0.05051	121.49	0.8382	300.12	-1000000	-1000000	-1000000	-1000000	
3.820	0.05053	120.70	0.8382	300.09	-1000000	-1000000	-1000000	-1000000	
3.840	0.05055	119.63	0.8382	300.13	-1000000	-1000000	-1000000	-1000000	
3.860	0.05056	118.45	0.8382	300.17	-1000000	-1000000	-1000000	-1000000	
3.880	0.05058	117.43	0.8382	300.17	-1000000	-1000000	-1000000	-1000000	
3.900	0.05065	116.35	0.8385	300.11	-1000000	-1000000	-1000000	-1000000	
3.920	0.05076	114.83	0.8388	300.09	-1000000	-1000000	-1000000	-1000000	
3.940	0.05089	113.14	0.8389	300.13	-1000000	-1000000	-1000000	-1000000	
3.960	0.05103	110.16	0.8389	300.17	-1000000	-1000000	-1000000	-1000000	
3.980	0.05125	105.02	0.8392	300.14	-1000000	-1000000	-1000000	-1000000	
4.000	0.05156	96.58	0.8395	300.09	-1000000	-1000000	-1000000	-1000000	
4.020	0.05196	82.85	0.8397	300.09	-1000000	-1000000	-1000000	-1000000	
4.040	0.05251	62.01	0.8401	300.15	-1000000	-1000000	-1000000	-1000000	
4.060	0.05318	35.60	0.8408	300.17	-1000000	-1000000	-1000000	-1000000	
4.080	0.05396	6.543	0.8416	300.12	-1000000	-1000000	-1000000	-1000000	
4.100	0.05483	-23.47	0.8429	300.08	-1000000	-1000000	-1000000	-1000000	
4.120	0.05580	-49.92	0.8448	300.12	-1000000	-1000000	-1000000	-1000000	
4.140	0.05692	-72.27	0.8472	300.17	-1000000	-1000000	-1000000	-1000000	
4.160	0.05820	-93.86	0.8502	300.16	-1000000	-1000000	-1000000	-1000000	
4.180	0.05963	-118.26	0.8534	300.11	-1000000	-1000000	-1000000	-1000000	
4.200	0.06108	-147.08	0.8566	300.09	-1000000	-1000000	-1000000	-1000000	
4.220	0.06256	-178.87	0.8603	300.14	-1000000	-1000000	-1000000	-1000000	
4.240	0.06413	-208.98	0.8643	300.17	-1000000	-1000000	-1000000	-1000000	
4.260	0.06571	-232.06	0.8689	300.14	-1000000	-1000000	-1000000	-1000000	
4.280	0.06726	-245.23	0.8742	300.09	-1000000	-1000000	-1000000	-1000000	
4.300	0.06882	-249.79	0.8802	300.10	-1000000	-1000000	-1000000	-1000000	
4.320	0.07037	-249.48	0.8862	300.15	-1000000	-1000000	-1000000	-1000000	
4.340	0.07192	-248.23	0.8920	300.17	-1000000	-1000000	-1000000	-1000000	
4.360	0.07346	-247.66	0.8978	300.12	-1000000	-1000000	-1000000	-1000000	
4.380	0.07504	-248.04	0.9036	300.09	-1000000	-1000000	-1000000	-1000000	
4.400	0.07669	-249.35	0.9093	300.12	-1000000	-1000000	-1000000	-1000000	
4.420	0.07833	-251.08	0.9150	300.16	-1000000	-1000000	-1000000	-1000000	
4.440	0.07990	-253.08	0.9208	300.16	-1000000	-1000000	-1000000	-1000000	
4.460	0.08142	-255.52	0.9267	300.10	-1000000	-1000000	-1000000	-1000000	
4.480	0.08295	-258.17	0.9324	300.09	-1000000	-1000000	-1000000	-1000000	
4.500	0.08455	-260.23	0.9383	300.14	-1000000	-1000000	-1000000	-1000000	
4.520	0.08618	-260.92	0.9442	300.17	-1000000	-1000000	-1000000	-1000000	
4.540	0.08778	-260.85	0.9503	300.14	-1000000	-1000000	-1000000	-1000000	
4.560	0.08935	-260.97	0.9564	300.08	-1000000	-1000000	-1000000	-1000000	
4.580	0.09098	-261.28	0.9622	300.10	-1000000	-1000000	-1000000	-1000000	
4.600	0.09256	-261.41	0.9681	300.15	-1000000	-1000000	-1000000	-1000000	
4.620	0.09414	-261.23	0.9742	300.16	-1000000	-1000000	-1000000	-1000000	
4.640	0.09574	-261.63	0.9802	300.11	-1000000	-1000000	-1000000	-1000000	
4.660	0.09736	-263.10	0.9862	300.08	-1000000	-1000000	-1000000	-1000000	
4.680	0.09896	-265.23	0.9920	300.13	-1000000	-1000000	-1000000	-1000000	
4.700	0.1006	-267.58	0.9980	300.17	-1000000	-1000000	-1000000	-1000000	
4.720	0.1023	-269.82	1.004	300.15	-1000000	-1000000	-1000000	-1000000	
4.740	0.1040	-271.47	1.010	300.09	-1000000	-1000000	-1000000	-1000000	
4.760	0.1057	-272.33	1.016	300.09	-1000000	-1000000	-1000000	-1000000	
4.780	0.1073	-272.75	1.022	300.14	-1000000	-1000000	-1000000	-1000000	
4.800	0.1089	-272.85	1.028	300.17	-1000000	-1000000	-1000000	-1000000	
4.820	0.1105	-272.75	1.035	300.13	-1000000	-1000000	-1000000	-1000000	
4.840	0.1122	-272.69	1.041	300.08	-1000000	-1000000	-1000000	-1000000	
4.860	0.1139	-272.83	1.047	300.11	-1000000	-1000000	-1000000	-1000000	
4.880	0.1155	-273.40	1.053	300.16	-1000000	-1000000	-1000000	-1000000	
4.900	0.1172	-274.13	1.059	300.15	-1000000	-1000000	-1000000	-1000000	
4.920	0.1189	-274.34	1.065	300.10	-1000000	-1000000	-1000000	-1000000	
4.940	0.1205	-274.24	1.072	300.15	-1000000	-1000000	-1000000	-1000000	
4.960	0.1221	-274.26	1.078	301.28	-1000000	-1000000	-1000000	-1000000	
4.980	0.1237	-274.21	1.084	304.52	-1000000	-1000000	-1000000	-1000000	
5.000	0.1253	-274.16	1.090	308.17	-1000000	-1000000	-1000000	-1000000	
5.020	0.1270	-274.36	1.096	312.15	-1000000	-1000000	-1000000	-1000000	
5.040	0.1287	-274.43	1.103	316.44	-1000000	-1000000	-1000000	-1000000	
5.060	0.1302	-273.83	1.109	320.05	-1000000	-1000000	-1000000	-1000000	
5.080	0.1314	-268.75	1.115	323.05	-1000000	-1000000	-1000000	-1000000	
5.100	0.1322	-251.93	1.121	325.76	-1000000	-1000000	-1000000	-1000000	
5.120	0.1329	-216.89	1.128	328.03	-1000000	-1000000	-1000000	-1000000	
5.140	0.1333	-162.59	1.134	329.45	-1000000	-1000000	-1000000	-1000000	
5.160	0.1335	-93.83	1.139	330.18	-1000000	-1000000	-1000000	-1000000	
5.180	0.1335	-20.15	1.144	330.70	-1000000	-1000000	-1000000	-1000000	
5.200	0.1336	46.51	1.147	331.21	-1000000	-1000000	-1000000	-1000000	
5.220	0.1335	95.15	1.149	331.23	-1000000	-1000000	-1000000	-1000000	
5.240	0.1335	123.84	1.150	330.69	-1000000	-1000000	-1000000	-1000000	
5.260	0.1335	137.05	1.151	330.19	-1000000	-1000000	-1000000	-1000000	
5.280	0.1335	141.09	1.150	329.67	-1000000	-1000000	-1000000	-1000000	
5.300	0.1335	140.93	1.150	329.19	-1000000	-1000000	-1000000	-1000000	
5.320	0.1335	139.63	1.150	329.05	-1000000	-1000000	-1000000	-1000000	
5.340	0.1335	138.45	1.150	328.95	-1000000	-1000000	-1000000	-1000000	
5.360	0.1334	137.45	1.150	328.92	-1000000	-1000000	-1000000	-1000000	
5.380	0.1335	137.01	1.149	328.89	-1000000	-1000000	-1000000	-1000000	
5.400	0.1335	136.95	1.149	328.92	-1000000	-1000000	-1000000	-1000000	
5.420	0.1335	136.90	1.149	328.79	-1000000	-1000000	-1000000	-1000000	
5.440	0.1335	136.90	1.149	328.43	-1000000	-1000000	-1000000	-1000000	
5.460	0.1335	136.87	1.149	328.02	-1000000	-1000000	-1000000	-1000000	
5.480	0.1335	136.74	1.149	327.83	-1000000	-1000000	-1000000	-1000000	
5.500	0.1334	136.81	1.148	328.09	-1000000	-1000000	-1000000	-1000000	
5.520	0.1334	136.92	1.148	328.15	-1000000	-1000000	-1000000	-1000000	
5.540	0.1334	136.80	1.148	327.92	-1000000	-1000000	-1000000	-1000000	
5.560	0.1335	136.47	1.148	327.76	-1000000	-1000000	-1000000	-1000000	
5.580	0.1335	135.84	1.148	327.56	-1000000	-1000000	-1000000	-1000000	
5.600	0.1335	135.39	1.148	327.34	-1000000	-1000000	-1000000	-1000000	
5.620	0.1334	135.25	1.148	327.02	-1000000	-1000000	-1000000	-1000000	
5.640	0.1335	135.29	1.148	327.02	-1000000	-1000000	-1000000	-1000000	
5.660	0.1335	135.25	1.147	326.99	-1000000	-1000000	-1000000	-1000000	
5.680	0.1334	135.33	1.147	327.05	-1000000	-1000000	-1000000	-1000000	
5.700	0.1335	135.40	1.147	327.33	-1000000	-1000000	-1000000	-1000000	
5.720	0.1335	135.22	1.147	327.50	-1000000	-1000000	-1000000	-1000000	
5.740	0.1335	135.07	1.147	327.55	-1000000	-1000000	-1000000	-1000000	
5.760	0.1335	135.16	1.147	327.60	-1000000	-1000000	-1000000	-1000000	
5.780	0.1335	135.41	1.146	327.63	-1000000	-1000000	-1000000	-1000000	
5.800	0.1335	135.44	1.146	327.48	-1000000	-1000000	-1000000	-1000000	
5.820	0.1335	135.34	1.146	327.40	-1000000	-1000000	-1000000	-1000000	
5.840	0.1335	135.14	1.146	327.30	-1000000	-1000000	-1000000	-1000000	
5.860	0.1335	135.00	1.146	327.15	-1000000	-1000000	-1000000	-1000000	
5.880	0.1335	135.09	1.146	327.03	-1000000	-1000000	-1000000	-1000000	
5.900	0.1335	135.15	1.146	326.96	-1000000	-1000000	-1000000	-1000000	
5.920	0.1335	135.02	1.146	327.05	-1000000	-1000000	-1000000	-1000000	
5.940	0.1335	134.46	1.146	326.88	-1000000	-1000000	-1000000	-1000000	
5.960	0.1335	133.84	1.146	326.45	-1000000	-1000000	-1000000	-1000000	
5.980	0.1334	133.54	1.145	326.46	-1000000	-1000000	-1000000	-1000000	
6.000	0.1333	133.45	1.145	326.62	-1000000	-1000000	-1000000	-1000000	
6.020	0.1333	133.52	1.145	326.63	-1000000	-1000000	-1000000	-1000000	
6.040	0.1334	133.62	1.145	326.78	-1000000	-1000000	-1000000	-1000000	
6.060	0.1335	133.73	1.145	327.06	-1000000	-1000000	-1000000	-1000000	
6.080	0.1335	133.63	1.145	327.16	-1000000	-1000000	-1000000	-1000000	
6.100	0.1334	133.20	1.145	327.17	-1000000	-1000000	-1000000	-1000000	
6.120	0.1334	132.50	1.145	327.38	-1000000	-1000000	-1000000	-1000000	
6.140	0.1334	132.03	1.144	327.33	-1000000	-1000000	-1000000	-1000000	
6.160	0.1334	131.75	1.144	327.14	-1000000	-1000000	-1000000	-1000000	
6.180	0.1334	130.87	1.144	327.01	-1000000	-1000000	-1000000	-1000000	
6.200	0.1335	129.73	1.144	327.29	-1000000	-1000000	-1000000	-1000000	
6.220	0.1335	128.39	1.145	327.51	-1000000	-1000000	-1000000	-1000000	
6.240	0.1336	126.69	1.145	327.45	-1000000	-1000000	-1000000	-1000000	
6.260	0.1336	124.28	1.145	327.08	-1000000	-1000000	-1000000	-1000000	
6.280	0.1336	120.89	1.144	326.79	-1000000	-1000000	-1000000	-1000000	
6.300	0.1336	116.13	1.144	327.57	-1000000	-1000000	-1000000	-1000000	
6.320	0.1336	108.97	1.144	328.39	-1000000	-1000000	-1000000	-1000000	
6.340	0.1339	97.72	1.144	329.53	-1000000	-1000000	-1000000	-1000000	
6.360	0.1342	79.37	1.144	330.61	-1000000	-1000000	-1000000	-1000000	
6.380	0.1346	53.39	1.145	331.60	-1000000	-1000000	-1000000	-1000000	
6.400	0.1350	24.00	1.145	332.67	-1000000	-1000000	-1000000	-1000000	
6.420	0.1354	-2.910	1.146	333.77	-1000000	-1000000	-1000000	-1000000	
6.440	0.1358	-19.13	1.148	334.45	-1000000	-1000000	-1000000	-1000000	
6.460	0.1361	-15.32	1.150	334.95	-1000000	-1000000	-1000000	-1000000	
6.480	0.1363	7.428	1.153	335.16	-1000000	-1000000	-1000000	-1000000	
6.500	0.1364	42.47	1.155	335.34	-1000000	-1000000	-1000000	-1000000	
6.520	0.1364	80.84	1.157	335.55	-1000000	-1000000	-1000000	-1000000	
6.540	0.1365	113.31	1.158	335.79	-1000000	-1000000	-1000000	-1000000	
6.560	0.1364	134.29	1.158	335.80	-1000000	-1000000	-1000000	-1000000	
6.580	0.1364	144.47	1.158	335.57	-1000000	-1000000	-1000000	-1000000	
6.600	0.1364	148.01	1.158	335.52	-1000000	-1000000	-1000000	-1000000	
6.620	0.1365	148.23	1.158	335.68	-1000000	-1000000	-1000000	-1000000	
6.640	0.1364	147.53	1.157	335.56	-1000000	-1000000	-1000000	-1000000	
6.660	0.1364	146.73	1.157	335.68	-1000000	-1000000	-1000000	-1000000	
6.680	0.1364	145.91	1.158	335.99	-1000000	-1000000	-1000000	-1000000	
6.700	0.1365	145.43	1.158	336.23	-1000000	-1000000	-1000000	-1000000	
6.720	0.1365	144.68	1.158	336.45	-1000000	-1000000	-1000000	-1000000	
6.740	0.1365	143.83	1.158	336.43	-1000000	-1000000	-1000000	-1000000	
6.760	0.1364	142.91	1.158	336.31	-1000000	-1000000	-1000000	-1000000	
6.780	0.1364	142.00	1.157	336.43	-1000000	-1000000	-1000000	-1000000	
6.800	0.1364	141.05	1.157	336.47	-1000000	-1000000	-1000000	-1000000	
6.820	0.1364	139.77	1.157	336.45	-1000000	-1000000	-1000000	-1000000	
6.840	0.1364	138.84	1.156	336.15	-1000000	-1000000	-1000000	-1000000	
6.860	0.1364	138.11	1.156	335.87	-1000000	-1000000	-1000000	-1000000	
6.880	0.1364	137.34	1.155	335.75	-1000000	-1000000	-1000000	-1000000	
6.900	0.1364	136.47	1.155	335.63	-1000000	-1000000	-1000000	-1000000	
6.920	0.1364	135.62	1.156	335.66	-1000000	-1000000	-1000000	-1000000	
6.940	0.1364	134.79	1.156	335.89	-1000000	-1000000	-1000000	-1000000	
6.960	0.1364	133.70	1.156	335.85	-1000000	-1000000	-1000000	-1000000	
6.980	0.1364	132.45	1.155	335.67	-1000000	-1000000	-1000000	-1000000	
7.000	0.1364	131.34	1.154	335.89	-1000000	-1000000	-1000000	-1000000	
7.020	0.1364	130.35	1.154	336.57	-1000000	-1000000	-1000000	-1000000	
7.040	0.1365	129.15	1.155	336.87	-1000000	-1000000	-1000000	-1000000	
7.060	0.1365	127.56	1.155	336.99	-1000000	-1000000	-1000000	-1000000	
7.080	0.1365	125.48	1.155	337.07	-1000000	-1000000	-1000000	-1000000	
7.100	0.1366	123.05	1.154	337.11	-1000000	-1000000	-1000000	-1000000	
7.120	0.1366	119.44	1.154	337.36	-1000000	-1000000	-1000000	-1000000	
7.140	0.1367	114.31	1.155	337.84	-1000000	-1000000	-1000000	-1000000	
7.160	0.1368	106.38	1.155	338.10	-1000000	-1000000	-1000000	-1000000	
7.180	0.1371	93.15	1.155	338.73	-1000000	-1000000	-1000000	-1000000	
7.200	0.1374	72.86	1.155	339.80	-1000000	-1000000	-1000000	-1000000	
7.220	0.1378	45.47	1.154	341.26	-1000000	-1000000	-1000000	-1000000	
7.240	0.1382	14.02	1.155	342.41	-1000000	-1000000	-1000000	-1000000	
7.260	0.1386	-14.57	1.157	343.55	-1000000	-1000000	-1000000	-1000000	
7.280	0.1390	-29.20	1.159	344.69	-1000000	-1000000	-1000000	-1000000	
7.300	0.1393	-24.56	1.161	345.34	-1000000	-1000000	-1000000	-1000000	
7.320	0.1395	-1.074	1.163	345.55	-1000000	-1000000	-1000000	-1000000	
7.340	0.1396	36.32	1.166	345.74	-1000000	-1000000	-1000000	-1000000	
7.360	0.1397	75.79	1.168	346.07	-1000000	-1000000	-1000000	-1000000	
7.380	0.1397	107.42	1.169	346.58	-1000000	-1000000	-1000000	-1000000	
7.400	0.1397	127.74	1.170	347.01	-1000000	-1000000	-1000000	-1000000	
7.420	0.1397	138.00	1.170	346.98	-1000000	-1000000	-1000000	-1000000	
7.440	0.1397	142.21	1.170	346.81	-1000000	-1000000	-1000000	-1000000	
7.460	0.1397	143.18	1.170	346.82	-1000000	-1000000	-1000000	-1000000	
7.480	0.1397	142.70	1.169	346.84	-1000000	-1000000	-1000000	-1000000	
7.500	0.1397	142.11	1.169	346.74	-1000000	-1000000	-1000000	-1000000	
7.520	0.1397	141.96	1.169	346.89	-1000000	-1000000	-1000000	-1000000	
7.540	0.1397	142.06	1.169	346.75	-1000000	-1000000	-1000000	-1000000	
7.560	0.1397	142.13	1.169	346.33	-1000000	-1000000	-1000000	-1000000	
7.580	0.1397	142.12	1.168	346.18	-1000000	-1000000	-1000000	-1000000	
7.600	0.1397	142.03	1.168	346.26	-1000000	-1000000	-1000000	-1000000	
7.620	0.1396	141.93	1.168	346.31	-1000000	-1000000	-1000000	-1000000	
7.640	0.1396	141.80	1.168	346.39	-1000000	-1000000	-1000000	-1000000	
7.660	0.1397	141.82	1.168	346.49	-1000000	-1000000	-1000000	-1000000	
7.680	0.1398	142.09	1.168	346.52	-1000000	-1000000	-1000000	-1000000	
7.700	0.1397	142.28	1.168	346.76	-1000000	-1000000	-1000000	-1000000	
7.720	0.1397	142.00	1.167	347.08	-1000000	-1000000	-1000000	-1000000	
7.740	0.1398	141.10	1.167	347.01	-1000000	-1000000	-1000000	-1000000	
7.760	0.1398	140.57	1.167	347.13	-1000000	-1000000	-1000000	-1000000	
7.780	0.1397	140.20	1.167	347.31	-1000000	-1000000	-1000000	-1000000	
7.800	0.1397	139.36	1.167	347.07	-1000000	-1000000	-1000000	-1000000	
7.820	0.1397	138.38	1.167	347.09	-1000000	-1000000	-1000000	-1000000	
7.840	0.1397	137.03	1.166	347.44	-1000000	-1000000	-1000000	-1000000	
7.860	0.1398	135.32	1.167	347.46	-1000000	-1000000	-1000000	-1000000	
7.880	0.1398	133.52	1.166	347.37	-1000000	-1000000	-1000000	-1000000	
7.900	0.1398	131.84	1.166	347.57	-1000000	-1000000	-1000000	-1000000	
7.920	0.1398	129.44	1.166	347.71	-1000000	-1000000	-1000000	-1000000	
7.940	0.1398	126.07	1.166	347.68	-1000000	-1000000	-1000000	-1000000	
7.960	0.1399	121.15	1.166	347.89	-1000000	-1000000	-1000000	-1000000	
7.980	0.1400	114.03	1.166	348.38	-1000000	-1000000	-1000000	-1000000	
8.000	0.1402	103.42	1.166	349.17	-1000000	-1000000	-1000000	-1000000	
8.020	0.1406	86.42	1.166	350.23	-1000000	-1000000	-1000000	-1000000	
8.040	0.1409	61.24	1.166	351.37	-1000000	-1000000	-1000000	-1000000	
8.060	0.1411	29.74	1.167	352.46	-1000000	-1000000	-1000000	-1000000	
8.080	0.1413	-0.8405	1.167	353.26	-1000000	-1000000	-1000000	-1000000	
8.100	0.1417	-19.87	1.168	353.80	-1000000	-1000000	-1000000	-1000000	
8.120	0.1421	-22.63	1.170	354.40	-1000000	-1000000	-1000000	-1000000	
8.140	0.1423	-8.400	1.172	354.98	-1000000	-1000000	-1000000	-1000000	
8.160	0.1425	21.51	1.175	355.22	-1000000	-1000000	-1000000	-1000000	
8.180	0.1426	57.96	1.177	355.30	-1000000	-1000000	-1000000	-1000000	
8.200	0.1426	90.62	1.178	355.39	-1000000	-1000000	-1000000	-1000000	
8.220	0.1426	114.36	1.179	355.47	-1000000	-1000000	-1000000	-1000000	
8.240	0.1425	128.37	1.179	355.45	-1000000	-1000000	-1000000	-1000000	
8.260	0.1426	135.31	1.179	355.43	-1000000	-1000000	-1000000	-1000000	
8.280	0.1426	138.51	1.179	355.52	-1000000	-1000000	-1000000	-1000000	
8.300	0.1426	139.90	1.179	355.80	-1000000	-1000000	-1000000	-1000000	
8.320	0.1425	140.21	1.179	355.93	-1000000	-1000000	-1000000	-1000000	
8.340	0.1426	140.28	1.179	355.90	-1000000	-1000000	-1000000	-1000000	
8.360	0.1426	140.62	1.179	355.90	-1000000	-1000000	-1000000	-1000000	
8.380	0.1426	141.49	1.179	356.00	-1000000	-1000000	-1000000	-1000000	
8.400	0.1425	141.83	1.179	355.98	-1000000	-1000000	-1000000	-1000000	
8.420	0.1425	141.84	1.179	356.12	-1000000	-1000000	-1000000	-1000000	
8.440	0.1425	142.02	1.178	356.29	-1000000	-1000000	-1000000	-1000000	
8.460	0.1426	142.28	1.178	356.27	-1000000	-1000000	-1000000	-1000000	
8.480	0.1426	142.96	1.178	356.20	-1000000	-1000000	-1000000	-1000000	
8.500	0.1426	143.41	1.178	356.24	-1000000	-1000000	-1000000	-1000000	
8.520	0.1426	143.60	1.178	356.25	-1000000	-1000000	-1000000	-1000000	
8.540	0.1426	143.64	1.177	356.05	-1000000	-1000000	-1000000	-1000000	
8.560	0.1426	143.59	1.177	355.88	-1000000	-1000000	-1000000	-1000000	
8.580	0.1426	143.55	1.177	355.79	-1000000	-1000000	-1000000	-1000000	
8.600	0.1426	143.41	1.177	355.85	-1000000	-1000000	-1000000	-1000000	
8.620	0.1425	142.82	1.177	355.93	-1000000	-1000000	-1000000	-1000000	
8.640	0.1425	142.09	1.177	356.05	-1000000	-1000000	-1000000	-1000000	
8.660	0.1426	141.06	1.176	356.20	-1000000	-1000000	-1000000	-1000000	
8.680	0.1426	139.87	1.176	356.34	-1000000	-1000000	-1000000	-1000000	
8.700	0.1426	138.38	1.176	356.51	-1000000	-1000000	-1000000	-1000000	
8.720	0.1425	136.38	1.176	356.83	-1000000	-1000000	-1000000	-1000000	
8.740	0.1425	133.96	1.176	357.06	-1000000	-1000000	-1000000	-1000000	
8.760	0.1426	130.79	1.176	357.45	-1000000	-1000000	-1000000	-1000000	
8.780	0.1427	126.15	1.176	357.70	-1000000	-1000000	-1000000	-1000000	
8.800	0.1427	119.73	1.175	357.89	-1000000	-1000000	-1000000	-1000000	
8.820	0.1430	110.15	1.175	358.43	-1000000	-1000000	-1000000	-1000000	
8.840	0.1432	95.14	1.175	359.46	-1000000	-1000000	-1000000	-1000000	
8.860	0.1434	72.24	1.176	360.62	-1000000	-1000000	-1000000	-1000000	
8.880	0.1436	41.79	1.176	361.34	-1000000	-1000000	-1000000	-1000000	
8.900	0.1439	9.685	1.176	361.80	-1000000	-1000000	-1000000	-1000000	
8.920	0.1442	-15.59	1.177	362.40	-1000000	-1000000	-1000000	-1000000	
8.940	0.1445	-26.11	1.179	363.08	-1000000	-1000000	-1000000	-1000000	
8.960	0.1447	-19.88	1.181	363.74	-1000000	-1000000	-1000000	-1000000	
8.980	0.1449	2.912	1.183	364.06	-1000000	-1000000	-1000000	-1000000	
9.000	0.1450	36.01	1.185	364.30	-1000000	-1000000	-1000000	-1000000	
9.020	0.1450	69.64	1.186	364.49	-1000000	-1000000	-1000000	-1000000	
9.040	0.1450	96.85	1.187	364.65	-1000000	-1000000	-1000000	-1000000	
9.060	0.1451	115.09	1.188	364.67	-1000000	-1000000	-1000000	-1000000	
9.080	0.1451	125.57	1.188	364.62	-1000000	-1000000	-1000000	-1000000	
9.100	0.1452	131.32	1.188	364.76	-1000000	-1000000	-1000000	-1000000	
9.120	0.1451	134.78	1.188	364.86	-1000000	-1000000	-1000000	-1000000	
9.140	0.1451	136.80	1.188	364.97	-1000000	-1000000	-1000000	-1000000	
9.160	0.1451	137.88	1.188	365.09	-1000000	-1000000	-1000000	-1000000	
9.180	0.1451	138.85	1.188	365.04	-1000000	-1000000	-1000000	-1000000	
9.200	0.1451	139.85	1.188	364.89	-1000000	-1000000	-1000000	-1000000	
9.220	0.1451	140.88	1.188	364.74	-1000000	-1000000	-1000000	-1000000	
9.240	0.1451	141.85	1.188	364.72	-1000000	-1000000	-1000000	-1000000	
9.260	0.1451	142.71	1.187	364.65	-1000000	-1000000	-1000000	-1000000	
9.280	0.1451	143.35	1.187	364.58	-1000000	-1000000	-1000000	-1000000	
9.300	0.1451	144.00	1.187	364.71	-1000000	-1000000	-1000000	-1000000	
9.320	0.1451	144.90	1.187	364.79	-1000000	-1000000	-1000000	-1000000	
9.340	0.1451	145.31	1.187	364.89	-1000000	-1000000	-1000000	-1000000	
9.360	0.1450	145.83	1.187	365.14	-1000000	-1000000	-1000000	-1000000	
9.380	0.1451	146.53	1.187	365.26	-1000000	-1000000	-1000000	-1000000	
9.400	0.1451	146.79	1.186	365.26	-1000000	-1000000	-1000000	-1000000	
9.420	0.1451	146.98	1.186	365.18	-1000000	-1000000	-1000000	-1000000	
9.440	0.1451	147.31	1.186	365.09	-1000000	-1000000	-1000000	-1000000	
9.460	0.1450	147.34	1.186	365.10	-1000000	-1000000	-1000000	-1000000	
9.480	0.1450	147.12	1.185	365.15	-1000000	-1000000	-1000000	-1000000	
9.500	0.1450	146.28	1.185	365.21	-1000000	-1000000	-1000000	-1000000	
9.520	0.1450	145.57	1.185	365.08	-1000000	-1000000	-1000000	-1000000	
9.540	0.1450	144.89	1.185	364.82	-1000000	-1000000	-1000000	-1000000	
9.560	0.1449	144.09	1.185	364.77	-1000000	-1000000	-1000000	-1000000	
9.580	0.1449	143.68	1.185	364.78	-1000000	-1000000	-1000000	-1000000	
9.600	0.1449	143.46	1.184	364.75	-1000000	-1000000	-1000000	-1000000	
9.620	0.1449	142.78	1.184	364.86	-1000000	-1000000	-1000000	-1000000	
9.640	0.1448	142.17	1.184	364.97	-1000000	-1000000	-1000000	-1000000	
9.660	0.1448	141.79	1.184	365.03	-1000000	-1000000	-1000000	-1000000	
9.680	0.1448	141.03	1.183	365.08	-1000000	-1000000	-1000000	-1000000	
9.700	0.1448	140.42	1.183	365.12	-1000000	-1000000	-1000000	-1000000	
9.720	0.1447	140.35	1.183	365.14	-1000000	-1000000	-1000000	-1000000	
9.740	0.1447	140.43	1.183	365.23	-1000000	-1000000	-1000000	-1000000	
9.760	0.1447	140.29	1.183	365.25	-1000000	-1000000	-1000000	-1000000	
9.780	0.1447	139.62	1.183	365.20	-1000000	-1000000	-1000000	-1000000	
9.800	0.1447	138.79	1.183	365.18	-1000000	-1000000	-1000000	-1000000	
9.820	0.1447	138.51	1.183	365.19	-1000000	-1000000	-1000000	-1000000	
9.840	0.1447	138.66	1.183	365.19	-1000000	-1000000	-1000000	-1000000	
9.860	0.1447	138.67	1.183	365.13	-1000000	-1000000	-1000000	-1000000	
9.880	0.1446	138.62	1.182	365.01	-1000000	-1000000	-1000000	-1000000	
9.900	0.1446	138.62	1.182	365.03	-1000000	-1000000	-1000000	-1000000	
9.920	0.1446	138.60	1.182	364.99	-1000000	-1000000	-1000000	-1000000	
9.940	0.1446	138.55	1.182	365.00	-1000000	-1000000	-1000000	-1000000	
9.960	0.1446	138.67	1.182	365.19	-1000000	-1000000	-1000000	-1000000	
9.980	0.1446	138.88	1.182	365.35	-1000000	-1000000	-1000000	-1000000	
10.00	0.1446	138.84	1.182	365.34	-1000000	-1000000	-1000000	-1000000	
10.02	0.1445	138.69	1.181	365.28	-1000000	-1000000	-1000000	-1000000	
10.04	0.1445	138.40	1.181	365.27	-1000000	-1000000	-1000000	-1000000	
10.06	0.1445	137.86	1.181	365.27	-1000000	-1000000	-1000000	-1000000	
10.08	0.1444	138.09	1.181	365.30	-1000000	-1000000	-1000000	-1000000	
10.10	0.1444	138.13	1.181	365.34	-1000000	-1000000	-1000000	-1000000	
10.12	0.1444	137.46	1.181	365.27	-1000000	-1000000	-1000000	-1000000	
10.14	0.1444	137.11	1.181	365.27	-1000000	-1000000	-1000000	-1000000	
10.16	0.1444	136.98	1.181	365.26	-1000000	-1000000	-1000000	-1000000	
10.18	0.1445	136.97	1.181	365.32	-1000000	-1000000	-1000000	-1000000	
10.20	0.1445	136.93	1.181	365.34	-1000000	-1000000	-1000000	-1000000	
10.22	0.1445	136.85	1.181	365.33	-1000000	-1000000	-1000000	-1000000	
10.24	0.1444	136.93	1.180	365.20	-1000000	-1000000	-1000000	-1000000	
10.26	0.1444	136.92	1.180	365.10	-1000000	-1000000	-1000000	-1000000	
10.28	0.1444	136.70	1.180	365.13	-1000000	-1000000	-1000000	-1000000	
10.30	0.1444	136.70	1.180	365.19	-1000000	-1000000	-1000000	-1000000	
10.32	0.1444	136.94	1.180	365.18	-1000000	-1000000	-1000000	-1000000	
10.34	0.1443	137.26	1.180	365.18	-1000000	-1000000	-1000000	-1000000	
10.36	0.1443	137.42	1.180	365.25	-1000000	-1000000	-1000000	-1000000	
10.38	0.1443	137.35	1.180	365.28	-1000000	-1000000	-1000000	-1000000	
10.40	0.1442	137.13	1.179	365.30	-1000000	-1000000	-1000000	-1000000	
10.42	0.1442	136.41	1.179	365.40	-1000000	-1000000	-1000000	-1000000	
10.44	0.1442	135.67	1.179	365.26	-1000000	-1000000	-1000000	-1000000	
10.46	0.1442	135.44	1.179	365.02	-1000000	-1000000	-1000000	-1000000	
10.48	0.1443	135.50	1.179	364.98	-1000000	-1000000	-1000000	-1000000	
10.50	0.1443	135.53	1.179	365.02	-1000000	-1000000	-1000000	-1000000	
10.52	0.1443	135.46	1.179	365.01	-1000000	-1000000	-1000000	-1000000	
10.54	0.1442	135.31	1.179	365.10	-1000000	-1000000	-1000000	-1000000	
10.56	0.1441	135.26	1.179	365.15	-1000000	-1000000	-1000000	-1000000	
10.58	0.1441	135.29	1.179	365.12	-1000000	-1000000	-1000000	-1000000	
10.60	0.1442	135.29	1.179	365.12	-1000000	-1000000	-1000000	-1000000	
10.62	0.1442	135.28	1.179	365.17	-1000000	-1000000	-1000000	-1000000	
10.64	0.1442	135.30	1.179	365.24	-1000000	-1000000	-1000000	-1000000	
10.66	0.1441	135.21	1.179	365.31	-1000000	-1000000	-1000000	-1000000	
10.68	0.1441	135.21	1.178	365.39	-1000000	-1000000	-1000000	-1000000	
10.70	0.1441	135.28	1.178	365.46	-1000000	-1000000	-1000000	-1000000	
10.72	0.1440	135.37	1.178	365.44	-1000000	-1000000	-1000000	-1000000	
10.74	0.1440	135.38	1.178	365.34	-1000000	-1000000	-1000000	-1000000	
10.76	0.1440	135.26	1.178	365.35	-1000000	-1000000	-1000000	-1000000	
10.78	0.1440	135.12	1.178	365.35	-1000000	-1000000	-1000000	-1000000	
10.80	0.1441	135.22	1.178	365.32	-1000000	-1000000	-1000000	-1000000	
10.82	0.1441	135.16	1.178	365.28	-1000000	-1000000	-1000000	-1000000	
10.84	0.1440	135.13	1.177	365.26	-1000000	-1000000	-1000000	-1000000	
10.86	0.1440	135.11	1.177	365.16	-1000000	-1000000	-1000000	-1000000	
10.88	0.1439	135.19	1.177	365.02	-1000000	-1000000	-1000000	-1000000	
10.90	0.1439	135.14	1.177	364.98	-1000000	-1000000	-1000000	-1000000	
10.92	0.1439	135.16	1.177	365.08	-1000000	-1000000	-1000000	-1000000	
10.94	0.1439	135.31	1.177	365.10	-1000000	-1000000	-1000000	-1000000	
10.96	0.1439	135.32	1.177	365.12	-1000000	-1000000	-1000000	-1000000	
10.98	0.1439	135.33	1.177	365.17	-1000000	-1000000	-1000000	-1000000	
11.00	0.1439	135.27	1.177	365.25	-1000000	-1000000	-1000000	-1000000	
11.02	0.1438	135.90	1.177	365.27	-1000000	-1000000	-1000000	-1000000	
11.04	0.1438	136.62	1.177	365.26	-1000000	-1000000	-1000000	-1000000	
11.06	0.1437	136.37	1.177	365.26	-1000000	-1000000	-1000000	-1000000	
11.08	0.1437	135.70	1.177	365.30	-1000000	-1000000	-1000000	-1000000	
11.10	0.1437	135.32	1.177	365.20	-1000000	-1000000	-1000000	-1000000	
11.12	0.1438	135.12	1.177	365.09	-1000000	-1000000	-1000000	-1000000	
11.14	0.1438	135.18	1.176	365.04	-1000000	-1000000	-1000000	-1000000	
11.16	0.1438	135.25	1.176	365.09	-1000000	-1000000	-1000000	-1000000	
11.18	0.1437	135.23	1.176	365.06	-1000000	-1000000	-1000000	-1000000	
11.20	0.1437	135.12	1.176	364.95	-1000000	-1000000	-1000000	-1000000	
11.22	0.1437	135.16	1.176	364.88	-1000000	-1000000	-1000000	-1000000	
11.24	0.1437	135.23	1.176	364.91	-1000000	-1000000	-1000000	-1000000	
11.26	0.1437	135.17	1.176	364.89	-1000000	-1000000	-1000000	-1000000	
11.28	0.1436	135.18	1.176	364.97	-1000000	-1000000	-1000000	-1000000	
11.30	0.1436	135.27	1.176	365.07	-1000000	-1000000	-1000000	-1000000	
11.32	0.1436	135.28	1.175	365.09	-1000000	-1000000	-1000000	-1000000	
11.34	0.1436	135.32	1.175	365.11	-1000000	-1000000	-1000000	-1000000	
11.36	0.1436	135.21	1.175	365.18	-1000000	-1000000	-1000000	-1000000	
11.38	0.1436	135.14	1.175	365.20	-1000000	-1000000	-1000000	-1000000	
11.40	0.1436	135.28	1.175	365.15	-1000000	-1000000	-1000000	-1000000	
11.42	0.1436	135.46	1.175	365.01	-1000000	-1000000	-1000000	-1000000	
11.44	0.1436	135.50	1.175	365.00	-1000000	-1000000	-1000000	-1000000	
11.46	0.1435	135.47	1.175	365.03	-1000000	-1000000	-1000000	-1000000	
11.48	0.1435	135.50	1.175	365.02	-1000000	-1000000	-1000000	-1000000	
11.50	0.1435	135.52	1.175	364.92	-1000000	-1000000	-1000000	-1000000	
11.52	0.1434	135.37	1.175	364.90	-1000000	-1000000	-1000000	-1000000	
11.54	0.1434	135.14	1.175	364.82	-1000000	-1000000	-1000000	-1000000	
11.56	0.1434	135.09	1.175	364.77	-1000000	-1000000	-1000000	-1000000	
11.58	0.1434	135.00	1.175	364.85	-1000000	-1000000	-1000000	-1000000	
11.60	0.1434	134.57	1.175	364.92	-1000000	-1000000	-1000000	-1000000	
11.62	0.1433	134.69	1.175	364.83	-1000000	-1000000	-1000000	-1000000	
11.64	0.1432	134.96	1.174	364.78	-1000000	-1000000	-1000000	-1000000	
11.66	0.1433	135.26	1.174	365.03	-1000000	-1000000	-1000000	-1000000	
11.68	0.1433	135.29	1.174	365.25	-1000000	-1000000	-1000000	-1000000	
11.70	0.1433	135.13	1.174	365.16	-1000000	-1000000	-1000000	-1000000	
11.72	0.1432	134.97	1.174	364.91	-1000000	-1000000	-1000000	-1000000	
11.74	0.1432	134.27	1.174	364.75	-1000000	-1000000	-1000000	-1000000	
11.76	0.1433	133.57	1.174	364.62	-1000000	-1000000	-1000000	-1000000	
11.78	0.1433	133.52	1.174	364.59	-1000000	-1000000	-1000000	-1000000	
11.80	0.1433	133.51	1.174	364.63	-1000000	-1000000	-1000000	-1000000	
11.82	0.1433	133.67	1.174	364.63	-1000000	-1000000	-1000000	-1000000	
11.84	0.1432	133.76	1.174	364.55	-1000000	-1000000	-1000000	-1000000	
11.86	0.1432	133.76	1.173	364.56	-1000000	-1000000	-1000000	-1000000	
11.88	0.1432	133.70	1.173	364.75	-1000000	-1000000	-1000000	-1000000	
11.90	0.1432	133.69	1.173	365.02	-1000000	-1000000	-1000000	-1000000	
11.92	0.1433	133.67	1.173	365.04	-1000000	-1000000	-1000000	-1000000	
11.94	0.1432	133.72	1.173	364.90	-1000000	-1000000	-1000000	-1000000	
11.96	0.1431	133.58	1.173	364.78	-1000000	-1000000	-1000000	-1000000	
11.98	0.1431	133.47	1.173	364.61	-1000000	-1000000	-1000000	-1000000	
12.00	0.1431	134.10	1.173	364.70	-1000000	-1000000	-1000000	-1000000	
12.02	0.1432	134.73	1.173	364.80	-1000000	-1000000	-1000000	-1000000	
12.04	0.1431	134.40	1.173	364.78	-1000000	-1000000	-1000000	-1000000	
12.06	0.1430	133.99	1.173	364.80	-1000000	-1000000	-1000000	-1000000	
12.08	0.1430	133.68	1.168	364.79	-1000000	-1000000	-1000000	-1000000	
12.10	0.1430	133.54	1.160	364.83	-1000000	-1000000	-1000000	-1000000	
12.12	0.1429	133.51	1.156	364.83	-1000000	-1000000	-1000000	-1000000	
12.14	0.1430	133.67	1.154	364.69	-1000000	-1000000	-1000000	-1000000	
12.16	0.1430	133.77	1.154	364.46	-1000000	-1000000	-1000000	-1000000	
12.18	0.1429	133.90	1.154	364.28	-1000000	-1000000	-1000000	-1000000	
12.20	0.1428	134.03	1.155	364.37	-1000000	-1000000	-1000000	-1000000	
12.22	0.1429	133.86	1.155	364.60	-1000000	-1000000	-1000000	-1000000	
12.24	0.1429	133.61	1.154	364.74	-1000000	-1000000	-1000000	-1000000	
12.26	0.1429	133.63	1.153	364.84	-1000000	-1000000	-1000000	-1000000	
12.28	0.1428	133.74	1.154	364.81	-1000000	-1000000	-1000000	-1000000	
12.30	0.1428	133.59	1.154	364.74	-1000000	-1000000	-1000000	-1000000	
12.32	0.1428	133.99	1.154	364.69	-1000000	-1000000	-1000000	-1000000	
12.34	0.1428	134.95	1.154	364.73	-1000000	-1000000	-1000000	-1000000	
12.36	0.1428	136.34	1.153	364.70	-1000000	-1000000	-1000000	-1000000	
12.38	0.1428	138.34	1.154	364.65	-1000000	-1000000	-1000000	-1000000	
12.40	0.1428	141.22	1.156	364.57	-1000000	-1000000	-1000000	-1000000	
12.42	0.1429	145.34	1.156	364.48	-1000000	-1000000	-1000000	-1000000	
12.44	0.1430	151.18	1.157	364.40	-1000000	-1000000	-1000000	-1000000	
12.46	0.1431	158.97	1.157	364.33	-1000000	-1000000	-1000000	-1000000	
12.48	0.1432	169.31	1.157	364.25	-1000000	-1000000	-1000000	-1000000	
12.50	0.1433	182.50	1.158	364.23	-1000000	-1000000	-1000000	-1000000	
12.52	0.1434	199.38	1.159	364.09	-1000000	-1000000	-1000000	-1000000	
12.54	0.1436	220.17	1.161	364.14	-1000000	-1000000	-1000000	-1000000	
12.56	0.1439	244.39	1.163	364.24	-1000000	-1000000	-1000000	-1000000	
12.58	0.1441	272.41	1.164	364.18	-1000000	-1000000	-1000000	-1000000	
12.60	0.1443	304.66	1.165	364.07	-1000000	-1000000	-1000000	-1000000	
12.62	0.1446	341.35	1.167	364.20	-1000000	-1000000	-1000000	-1000000	
12.64	0.1448	382.66	1.169	364.36	-1000000	-1000000	-1000000	-1000000	
12.66	0.1451	428.95	1.171	364.40	-1000000	-1000000	-1000000	-1000000	
12.68	0.1455	479.74	1.173	364.29	-1000000	-1000000	-1000000	-1000000	
12.70	0.1458	534.75	1.175	364.08	-1000000	-1000000	-1000000	-1000000	
12.72	0.1461	593.25	1.178	363.89	-1000000	-1000000	-1000000	-1000000	
12.74	0.1466	653.93	1.180	363.69	-1000000	-1000000	-1000000	-1000000	
12.76	0.1470	717.07	1.183	363.65	-1000000	-1000000	-1000000	-1000000	
12.78	0.1474	782.82	1.186	363.58	-1000000	-1000000	-1000000	-1000000	
12.80	0.1478	850.87	1.189	363.58	-1000000	-1000000	-1000000	-1000000	
12.82	0.1482	921.29	1.192	363.67	-1000000	-1000000	-1000000	-1000000	
12.84	0.1486	994.05	1.195	363.77	-1000000	-1000000	-1000000	-1000000	
12.86	0.1491	1069.1	1.198	363.61	-1000000	-1000000	-1000000	-1000000	
12.88	0.1496	1146.7	1.201	363.39	-1000000	-1000000	-1000000	-1000000	
12.90	0.1502	1226.5	1.204	363.44	-1000000	-1000000	-1000000	-1000000	
12.92	0.1507	1308.4	1.208	363.52	-1000000	-1000000	-1000000	-1000000	
12.94	0.1513	1392.2	1.212	363.46	-1000000	-1000000	-1000000	-1000000	
12.96	0.1519	1478.1	1.215	363.38	-1000000	-1000000	-1000000	-1000000	
12.98	0.1525	1566.0	1.219	363.37	-1000000	-1000000	-1000000	-1000000	
13.00	0.1531	1656.0	1.223	363.42	-1000000	-1000000	-1000000	-1000000	
13.02	0.1537	1747.4	1.228	363.24	-1000000	-1000000	-1000000	-1000000	
13.04	0.1544	1840.6	1.232	362.91	-1000000	-1000000	-1000000	-1000000	
13.06	0.1551	1935.1	1.236	362.94	-1000000	-1000000	-1000000	-1000000	
13.08	0.1558	2030.8	1.241	363.01	-1000000	-1000000	-1000000	-1000000	
13.10	0.1565	2128.2	1.245	362.98	-1000000	-1000000	-1000000	-1000000	
13.12	0.1573	2227.6	1.250	363.01	-1000000	-1000000	-1000000	-1000000	
13.14	0.1581	2328.2	1.255	362.96	-1000000	-1000000	-1000000	-1000000	
13.16	0.1589	2430.3	1.260	362.97	-1000000	-1000000	-1000000	-1000000	
13.18	0.1598	2533.7	1.265	363.11	-1000000	-1000000	-1000000	-1000000	
13.20	0.1608	2638.1	1.270	363.10	-1000000	-1000000	-1000000	-1000000	
13.22	0.1617	2743.4	1.276	363.00	-1000000	-1000000	-1000000	-1000000	
13.24	0.1626	2849.3	1.281	362.95	-1000000	-1000000	-1000000	-1000000	
13.26	0.1636	2956.0	1.287	362.99	-1000000	-1000000	-1000000	-1000000	
13.28	0.1647	3063.7	1.292	362.95	-1000000	-1000000	-1000000	-1000000	
13.30	0.1659	3171.6	1.298	362.81	-1000000	-1000000	-1000000	-1000000	
13.32	0.1671	3278.5	1.304	362.59	-1000000	-1000000	-1000000	-1000000	
13.34	0.1683	3384.6	1.310	362.43	-1000000	-1000000	-1000000	-1000000	
13.36	0.1697	3489.4	1.316	362.26	-1000000	-1000000	-1000000	-1000000	
13.38	0.1713	3592.4	1.323	362.12	-1000000	-1000000	-1000000	-1000000	
13.40	0.1731	3693.4	1.329	362.00	-1000000	-1000000	-1000000	-1000000	
13.42	0.1751	3791.3	1.335	361.97	-1000000	-1000000	-1000000	-1000000	
13.44	0.1774	3885.6	1.342	362.02	-1000000	-1000000	-1000000	-1000000	
13.46	0.1799	3975.1	1.349	362.01	-1000000	-1000000	-1000000	-1000000	
13.48	0.1827	4058.3	1.356	362.01	-1000000	-1000000	-1000000	-1000000	
13.50	0.1858	4135.1	1.363	361.99	-1000000	-1000000	-1000000	-1000000	
13.52	0.1892	4205.7	1.370	362.03	-1000000	-1000000	-1000000	-1000000	
13.54	0.1929	4270.1	1.377	362.16	-1000000	-1000000	-1000000	-1000000	
13.56	0.1969	4328.3	1.385	362.05	-1000000	-1000000	-1000000	-1000000	
13.58	0.2010	4380.0	1.392	361.81	-1000000	-1000000	-1000000	-1000000	
13.60	0.2054	4426.7	1.400	361.83	-1000000	-1000000	-1000000	-1000000	
13.62	0.2099	4469.1	1.408	361.78	-1000000	-1000000	-1000000	-1000000	
13.64	0.2145	4508.0	1.415	361.68	-1000000	-1000000	-1000000	-1000000	
13.66	0.2192	4543.6	1.423	361.71	-1000000	-1000000	-1000000	-1000000	
13.68	0.2240	4576.5	1.431	361.64	-1000000	-1000000	-1000000	-1000000	
13.70	0.2290	4607.3	1.440	361.60	-1000000	-1000000	-1000000	-1000000	
13.72	0.2342	4636.4	1.448	361.60	-1000000	-1000000	-1000000	-1000000	
13.74	0.2394	4664.2	1.456	361.59	-1000000	-1000000	-1000000	-1000000	
13.76	0.2446	4691.0	1.465	361.64	-1000000	-1000000	-1000000	-1000000	
13.78	0.2500	4716.9	1.474	361.62	-1000000	-1000000	-1000000	-1000000	
13.80	0.2554	4742.3	1.482	361.52	-1000000	-1000000	-1000000	-1000000	
13.82	0.2609	4766.8	1.491	361.50	-1000000	-1000000	-1000000	-1000000	
13.84	0.2664	4790.0	1.501	361.41	-1000000	-1000000	-1000000	-1000000	
13.86	0.2720	4813.0	1.510	361.54	-1000000	-1000000	-1000000	-1000000	
13.88	0.2777	4835.9	1.519	361.68	-1000000	-1000000	-1000000	-1000000	
13.90	0.2836	4858.2	1.529	361.72	-1000000	-1000000	-1000000	-1000000	
13.92	0.2894	4880.2	1.538	361.70	-1000000	-1000000	-1000000	-1000000	
13.94	0.2954	4901.8	1.548	361.70	-1000000	-1000000	-1000000	-1000000	
13.96	0.3013	4922.8	1.557	361.58	-1000000	-1000000	-1000000	-1000000	
13.98	0.3074	4943.1	1.567	361.30	-1000000	-1000000	-1000000	-1000000	
14.00	0.3135	4963.7	1.577	361.12	-1000000	-1000000	-1000000	-1000000	
14.02	0.3197	4984.5	1.587	361.09	-1000000	-1000000	-1000000	-1000000	
14.04	0.3259	5004.4	1.598	361.08	-1000000	-1000000	-1000000	-1000000	
14.06	0.3322	5024.0	1.608	361.02	-1000000	-1000000	-1000000	-1000000	
14.08	0.3385	5044.1	1.619	360.95	-1000000	-1000000	-1000000	-1000000	
14.10	0.3449	5063.7	1.630	361.00	-1000000	-1000000	-1000000	-1000000	
14.12	0.3514	5082.8	1.640	361.09	-1000000	-1000000	-1000000	-1000000	
14.14	0.3580	5102.5	1.651	361.05	-1000000	-1000000	-1000000	-1000000	
14.16	0.3646	5122.2	1.662	360.97	-1000000	-1000000	-1000000	-1000000	
14.18	0.3714	5141.6	1.673	360.95	-1000000	-1000000	-1000000	-1000000	
14.20	0.3780	5160.9	1.684	360.90	-1000000	-1000000	-1000000	-1000000	
14.22	0.3848	5179.6	1.696	360.86	-1000000	-1000000	-1000000	-1000000	
14.24	0.3917	5198.2	1.707	360.72	-1000000	-1000000	-1000000	-1000000	
14.26	0.3987	5217.3	1.719	360.69	-1000000	-1000000	-1000000	-1000000	
14.28	0.4057	5236.3	1.730	360.67	-1000000	-1000000	-1000000	-1000000	
14.30	0.4128	5255.2	1.742	360.70	-1000000	-1000000	-1000000	-1000000	
14.32	0.4199	5273.8	1.754	360.82	-1000000	-1000000	-1000000	-1000000	
14.34	0.4271	5292.0	1.766	360.86	-1000000	-1000000	-1000000	-1000000	
14.36	0.4344	5310.0	1.778	360.69	-1000000	-1000000	-1000000	-1000000	
14.38	0.4417	5328.2	1.791	360.52	-1000000	-1000000	-1000000	-1000000	
14.40	0.4492	5346.5	1.803	360.30	-1000000	-1000000	-1000000	-1000000	
14.42	0.4566	5364.6	1.816	360.23	-1000000	-1000000	-1000000	-1000000	
14.44	0.4641	5383.0	1.828	360.36	-1000000	-1000000	-1000000	-1000000	
14.46	0.4717	5401.3	1.841	360.35	-1000000	-1000000	-1000000	-1000000	
14.48	0.4793	5419.8	1.854	360.27	-1000000	-1000000	-1000000	-1000000	
14.50	0.4871	5437.6	1.867	360.37	-1000000	-1000000	-1000000	-1000000	
14.52	0.4949	5455.2	1.880	360.51	-1000000	-1000000	-1000000	-1000000	
14.54	0.5028	5473.0	1.893	360.52	-1000000	-1000000	-1000000	-1000000	
14.56	0.5108	5490.8	1.907	360.61	-1000000	-1000000	-1000000	-1000000	
14.58	0.5189	5508.5	1.920	360.70	-1000000	-1000000	-1000000	-1000000	
14.60	0.5270	5526.2	1.934	360.47	-1000000	-1000000	-1000000	-1000000	
14.62	0.5351	5543.4	1.948	360.22	-1000000	-1000000	-1000000	-1000000	
14.64	0.5432	5561.0	1.962	360.09	-1000000	-1000000	-1000000	-1000000	
14.66	0.5515	5578.6	1.976	360.02	-1000000	-1000000	-1000000	-1000000	
14.68	0.5600	5596.2	1.990	360.02	-1000000	-1000000	-1000000	-1000000	
14.70	0.5685	5614.0	2.004	360.03	-1000000	-1000000	-1000000	-1000000	
14.72	0.5770	5631.7	2.018	359.92	-1000000	-1000000	-1000000	-1000000	
14.74	0.5856	5649.2	2.032	359.75	-1000000	-1000000	-1000000	-1000000	
14.76	0.5942	5666.3	2.047	359.63	-1000000	-1000000	-1000000	-1000000	
14.78	0.6030	5683.2	2.062	359.58	-1000000	-1000000	-1000000	-1000000	
14.80	0.6118	5700.5	2.077	359.53	-1000000	-1000000	-1000000	-1000000	
14.82	0.6207	5717.7	2.092	359.71	-1000000	-1000000	-1000000	-1000000	
14.84	0.6296	5734.6	2.107	359.91	-1000000	-1000000	-1000000	-1000000	
14.86	0.6387	5751.5	2.122	360.03	-1000000	-1000000	-1000000	-1000000	
14.88	0.6478	5767.9	2.137	359.97	-1000000	-1000000	-1000000	-1000000	
14.90	0.6571	5784.0	2.153	359.88	-1000000	-1000000	-1000000	-1000000	
14.92	0.6664	5800.3	2.168	359.84	-1000000	-1000000	-1000000	-1000000	
14.94	0.6757	5816.8	2.184	359.68	-1000000	-1000000	-1000000	-1000000	
14.96	0.6851	5833.6	2.200	359.44	-1000000	-1000000	-1000000	-1000000	
14.98	0.6946	5850.4	2.215	359.33	-1000000	-1000000	-1000000	-1000000	
15.00	0.7041	5866.6	2.231	359.38	-1000000	-1000000	-1000000	-1000000	
15.02	0.7138	5882.7	2.247	359.32	-1000000	-1000000	-1000000	-1000000	
15.04	0.7237	5899.2	2.264	359.10	-1000000	-1000000	-1000000	-1000000	
15.06	0.7336	5915.5	2.280	359.04	-1000000	-1000000	-1000000	-1000000	
15.08	0.7435	5931.3	2.297	359.09	-1000000	-1000000	-1000000	-1000000	
15.10	0.7535	5947.0	2.313	359.22	-1000000	-1000000	-1000000	-1000000	
15.12	0.7636	5962.8	2.330	359.34	-1000000	-1000000	-1000000	-1000000	
15.14	0.7739	5978.3	2.347	359.42	-1000000	-1000000	-1000000	-1000000	
15.16	0.7843	5993.7	2.364	359.41	-1000000	-1000000	-1000000	-1000000	
15.18	0.7948	6009.2	2.381	359.35	-1000000	-1000000	-1000000	-1000000	
15.20	0.8054	6024.5	2.398	359.52	-1000000	-1000000	-1000000	-1000000	
15.22	0.8160	6039.4	2.416	359.76	-1000000	-1000000	-1000000	-1000000	
15.24	0.8266	6054.0	2.433	359.87	-1000000	-1000000	-1000000	-1000000	
15.26	0.8372	6068.2	2.451	359.86	-1000000	-1000000	-1000000	-1000000	
15.28	0.8479	6081.7	2.468	359.78	-1000000	-1000000	-1000000	-1000000	
15.30	0.8588	6094.9	2.486	359.79	-1000000	-1000000	-1000000	-1000000	
15.32	0.8698	6108.0	2.504	359.80	-1000000	-1000000	-1000000	-1000000	
15.34	0.8809	6121.5	2.522	359.76	-1000000	-1000000	-1000000	-1000000	
15.36	0.8921	6134.8	2.540	359.94	-1000000	-1000000	-1000000	-1000000	
15.38	0.9034	6147.4	2.558	359.93	-1000000	-1000000	-1000000	-1000000	
15.40	0.9148	6160.4	2.577	359.95	-1000000	-1000000	-1000000	-1000000	
15.42	0.9263	6173.7	2.595	360.13	-1000000	-1000000	-1000000	-1000000	
15.44	0.9378	6186.9	2.614	360.34	-1000000	-1000000	-1000000	-1000000	
15.46	0.9494	6200.0	2.633	360.55	-1000000	-1000000	-1000000	-1000000	
15.48	0.9612	6213.5	2.652	360.64	-1000000	-1000000	-1000000	-1000000	
15.50	0.9730	6227.3	2.671	360.80	-1000000	-1000000	-1000000	-1000000	
15.52	0.9850	6241.0	2.690	360.90	-1000000	-1000000	-1000000	-1000000	
15.54	0.9971	6254.5	2.709	360.76	-1000000	-1000000	-1000000	-1000000	
15.56	1.009	6268.4	2.729	360.64	-1000000	-1000000	-1000000	-1000000	
15.58	1.022	6281.6	2.748	360.68	-1000000	-1000000	-1000000	-1000000	
15.60	1.034	6294.6	2.768	360.70	-1000000	-1000000	-1000000	-1000000	
15.62	1.046	6308.1	2.787	360.72	-1000000	-1000000	-1000000	-1000000	
15.64	1.059	6321.8	2.807	360.78	-1000000	-1000000	-1000000	-1000000	
15.66	1.071	6335.1	2.827	360.72	-1000000	-1000000	-1000000	-1000000	
15.68	1.084	6348.2	2.847	360.65	-1000000	-1000000	-1000000	-1000000	
15.70	1.097	6361.5	2.868	360.63	-1000000	-1000000	-1000000	-1000000	
15.72	1.110	6374.4	2.888	360.64	-1000000	-1000000	-1000000	-1000000	
15.74	1.123	6387.2	2.908	360.64	-1000000	-1000000	-1000000	-1000000	
15.76	1.136	6400.1	2.929	360.69	-1000000	-1000000	-1000000	-1000000	
15.78	1.150	6412.9	2.950	360.71	-1000000	-1000000	-1000000	-1000000	
15.80	1.163	6425.3	2.970	360.62	-1000000	-1000000	-1000000	-1000000	
15.82	1.176	6437.7	2.991	360.57	-1000000	-1000000	-1000000	-1000000	
15.84	1.190	6450.2	3.013	360.58	-1000000	-1000000	-1000000	-1000000	
15.86	1.204	6462.4	3.034	360.61	-1000000	-1000000	-1000000	-1000000	
15.88	1.217	6474.5	3.055	360.82	-1000000	-1000000	-1000000	-1000000	
15.90	1.231	6486.2	3.076	361.16	-1000000	-1000000	-1000000	-1000000	
15.92	1.245	6497.8	3.098	361.26	-1000000	-1000000	-1000000	-1000000	
15.94	1.260	6509.5	3.120	361.22	-1000000	-1000000	-1000000	-1000000	
15.96	1.274	6521.3	3.141	361.15	-1000000	-1000000	-1000000	-1000000	
15.98	1.288	6532.8	3.163	360.92	-1000000	-1000000	-1000000	-1000000	
16.00	1.303	6544.2	3.185	360.64	-1000000	-1000000	-1000000	-1000000	
16.02	1.317	6555.9	3.207	360.51	-1000000	-1000000	-1000000	-1000000	
16.04	1.332	6567.3	3.230	360.38	-1000000	-1000000	-1000000	-1000000	
16.06	1.347	6578.3	3.252	360.49	-1000000	-1000000	-1000000	-1000000	
16.08	1.361	6589.3	3.275	360.72	-1000000	-1000000	-1000000	-1000000	
16.10	1.376	6600.4	3.297	360.70	-1000000	-1000000	-1000000	-1000000	
16.12	1.392	6611.8	3.320	360.62	-1000000	-1000000	-1000000	-1000000	
16.14	1.407	6622.8	3.343	360.65	-1000000	-1000000	-1000000	-1000000	
16.16	1.422	6633.8	3.366	360.62	-1000000	-1000000	-1000000	-1000000	
16.18	1.437	6644.6	3.389	360.60	-1000000	-1000000	-1000000	-1000000	
16.20	1.453	6655.4	3.412	360.63	-1000000	-1000000	-1000000	-1000000	
16.22	1.469	6666.0	3.435	360.77	-1000000	-1000000	-1000000	-1000000	
16.24	1.485	6676.1	3.459	360.81	-1000000	-1000000	-1000000	-1000000	
16.26	1.500	6686.3	3.483	360.94	-1000000	-1000000	-1000000	-1000000	
16.28	1.517	6696.7	3.506	360.96	-1000000	-1000000	-1000000	-1000000	
16.30	1.533	6707.0	3.530	360.84	-1000000	-1000000	-1000000	-1000000	
16.32	1.549	6717.0	3.554	360.59	-1000000	-1000000	-1000000	-1000000	
16.34	1.566	6727.1	3.578	360.56	-1000000	-1000000	-1000000	-1000000	
16.36	1.582	6737.0	3.602	360.61	-1000000	-1000000	-1000000	-1000000	
16.38	1.599	6746.3	3.626	360.54	-1000000	-1000000	-1000000	-1000000	
16.40	1.616	6755.8	3.651	360.64	-1000000	-1000000	-1000000	-1000000	
16.42	1.633	6765.3	3.676	360.77	-1000000	-1000000	-1000000	-1000000	
16.44	1.650	6774.3	3.700	360.69	-1000000	-1000000	-1000000	-1000000	
16.46	1.667	6783.1	3.725	360.75	-1000000	-1000000	-1000000	-1000000	
16.48	1.684	6792.3	3.750	360.86	-1000000	-1000000	-1000000	-1000000	
16.50	1.702	6801.2	3.775	360.95	-1000000	-1000000	-1000000	-1000000	
16.52	1.719	6809.9	3.800	361.01	-1000000	-1000000	-1000000	-1000000	
16.54	1.737	6819.2	3.825	361.08	-1000000	-1000000	-1000000	-1000000	
16.56	1.755	6828.4	3.850	360.97	-1000000	-1000000	-1000000	-1000000	
16.58	1.773	6837.3	3.876	360.86	-1000000	-1000000	-1000000	-1000000	
16.60	1.791	6845.6	3.901	360.85	-1000000	-1000000	-1000000	-1000000	
16.62	1.809	6854.1	3.927	360.67	-1000000	-1000000	-1000000	-1000000	
16.64	1.828	6862.6	3.953	360.58	-1000000	-1000000	-1000000	-1000000	
16.66	1.846	6870.6	3.979	360.59	-1000000	-1000000	-1000000	-1000000	
16.68	1.865	6878.8	4.005	360.58	-1000000	-1000000	-1000000	-1000000	
16.70	1.884	6887.0	4.031	360.67	-1000000	-1000000	-1000000	-1000000	
16.72	1.903	6895.0	4.058	360.85	-1000000	-1000000	-1000000	-1000000	
16.74	1.922	6902.4	4.084	360.98	-1000000	-1000000	-1000000	-1000000	
16.76	1.941	6909.9	4.111	360.93	-1000000	-1000000	-1000000	-1000000	
16.78	1.960	6917.3	4.138	360.99	-1000000	-1000000	-1000000	-1000000	
16.80	1.980	6924.2	4.164	360.98	-1000000	-1000000	-1000000	-1000000	
16.82	2.000	6931.4	4.191	361.15	-1000000	-1000000	-1000000	-1000000	
16.84	2.019	6938.8	4.218	361.38	-1000000	-1000000	-1000000	-1000000	
16.86	2.039	6946.2	4.246	361.21	-1000000	-1000000	-1000000	-1000000	
16.88	2.059	6953.1	4.273	361.04	-1000000	-1000000	-1000000	-1000000	
16.90	2.080	6959.8	4.300	361.11	-1000000	-1000000	-1000000	-1000000	
16.92	2.100	6966.5	4.328	361.25	-1000000	-1000000	-1000000	-1000000	
16.94	2.121	6973.0	4.355	361.25	-1000000	-1000000	-1000000	-1000000	
16.96	2.141	6979.6	4.383	361.04	-1000000	-1000000	-1000000	-1000000	
16.98	2.162	6985.9	4.411	360.85	-1000000	-1000000	-1000000	-1000000	
17.00	2.183	6992.0	4.439	360.96	-1000000	-1000000	-1000000	-1000000	
17.02	2.204	6998.3	4.467	360.91	-1000000	-1000000	-1000000	-1000000	
17.04	2.226	7004.5	4.495	360.98	-1000000	-1000000	-1000000	-1000000	
17.06	2.247	7010.1	4.524	361.26	-1000000	-1000000	-1000000	-1000000	
17.08	2.269	7015.7	4.552	361.39	-1000000	-1000000	-1000000	-1000000	
17.10	2.290	7021.4	4.581	361.17	-1000000	-1000000	-1000000	-1000000	
17.12	2.312	7026.8	4.610	361.13	-1000000	-1000000	-1000000	-1000000	
17.14	2.334	7032.3	4.639	361.30	-1000000	-1000000	-1000000	-1000000	
17.16	2.357	7038.1	4.668	361.35	-1000000	-1000000	-1000000	-1000000	
17.18	2.379	7043.3	4.697	361.32	-1000000	-1000000	-1000000	-1000000	
17.20	2.402	7048.7	4.726	361.51	-1000000	-1000000	-1000000	-1000000	
17.22	2.425	7053.9	4.755	361.68	-1000000	-1000000	-1000000	-1000000	
17.24	2.447	7058.6	4.785	361.75	-1000000	-1000000	-1000000	-1000000	
17.26	2.471	7063.0	4.814	361.69	-1000000	-1000000	-1000000	-1000000	
17.28	2.494	7067.3	4.844	361.55	-1000000	-1000000	-1000000	-1000000	
17.30	2.517	7071.2	4.874	361.50	-1000000	-1000000	-1000000	-1000000	
17.32	2.541	7075.1	4.904	361.41	-1000000	-1000000	-1000000	-1000000	
17.34	2.565	7079.2	4.934	361.21	-1000000	-1000000	-1000000	-1000000	
17.36	2.589	7083.1	4.964	361.31	-1000000	-1000000	-1000000	-1000000	
17.38	2.613	7087.4	4.994	361.63	-1000000	-1000000	-1000000	-1000000	
17.40	2.637	7091.6	5.025	361.85	-1000000	-1000000	-1000000	-1000000	
17.42	2.662	7095.1	5.055	361.81	-1000000	-1000000	-1000000	-1000000	
17.44	2.687	7098.3	5.086	361.70	-1000000	-1000000	-1000000	-1000000	
17.46	2.711	7101.7	5.117	361.76	-1000000	-1000000	-1000000	-1000000	
17.48	2.737	7104.8	5.148	361.95	-1000000	-1000000	-1000000	-1000000	
17.50	2.762	7107.7	5.179	362.16	-1000000	-1000000	-1000000	-1000000	
17.52	2.787	7110.4	5.210	362.26	-1000000	-1000000	-1000000	-1000000	
17.54	2.813	7113.3	5.241	362.38	-1000000	-1000000	-1000000	-1000000	
17.56	2.839	7116.5	5.272	362.60	-1000000	-1000000	-1000000	-1000000	
17.58	2.865	7119.2	5.304	362.67	-1000000	-1000000	-1000000	-1000000	
17.60	2.891	7121.6	5.335	362.56	-1000000	-1000000	-1000000	-1000000	
17.62	2.917	7124.0	5.367	362.38	-1000000	-1000000	-1000000	-1000000	
17.64	2.944	7126.6	5.399	362.15	-1000000	-1000000	-1000000	-1000000	
17.66	2.971	7128.9	5.431	362.12	-1000000	-1000000	-1000000	-1000000	
17.68	2.997	7131.0	5.463	362.34	-1000000	-1000000	-1000000	-1000000	
17.70	3.025	7132.8	5.495	362.48	-1000000	-1000000	-1000000	-1000000	
17.72	3.052	7134.5	5.527	362.58	-1000000	-1000000	-1000000	-1000000	
17.74	3.080	7136.3	5.560	362.61	-1000000	-1000000	-1000000	-1000000	
17.76	3.107	7137.8	5.592	362.69	-1000000	-1000000	-1000000	-1000000	
17.78	3.135	7138.9	5.625	362.82	-1000000	-1000000	-1000000	-1000000	
17.80	3.163	7140.1	5.658	362.89	-1000000	-1000000	-1000000	-1000000	
17.82	3.192	7141.2	5.691	363.12	-1000000	-1000000	-1000000	-1000000	
17.84	3.221	7142.4	5.724	363.17	-1000000	-1000000	-1000000	-1000000	
17.86	3.249	7143.1	5.757	363.12	-1000000	-1000000	-1000000	-1000000	
17.88	3.278	7143.9	5.791	363.15	-1000000	-1000000	-1000000	-1000000	
17.90	3.308	7144.7	5.824	363.18	-1000000	-1000000	-1000000	-1000000	
17.92	3.337	7145.0	5.858	363.22	-1000000	-1000000	-1000000	-1000000	
17.94	3.367	7144.6	5.891	363.26	-1000000	-1000000	-1000000	-1000000	
17.96	3.396	7143.8	5.925	363.17	-1000000	-1000000	-1000000	-1000000	
17.98	3.427	7143.4	5.959	363.15	-1000000	-1000000	-1000000	-1000000	
18.00	3.457	7143.1	5.993	363.31	-1000000	-1000000	-1000000	-1000000	
18.02	3.487	7142.5	6.027	363.41	-1000000	-1000000	-1000000	-1000000	
18.04	3.518	7141.5	6.061	363.54	-1000000	-1000000	-1000000	-1000000	
18.06	3.549	7140.0	6.096	363.75	-1000000	-1000000	-1000000	-1000000	
18.08	3.580	7138.4	6.130	363.99	-1000000	-1000000	-1000000	-1000000	
18.10	3.611	7136.7	6.165	364.28	-1000000	-1000000	-1000000	-1000000	
18.12	3.643	7135.0	6.199	364.40	-1000000	-1000000	-1000000	-1000000	
18.14	3.675	7133.2	6.234	364.40	-1000000	-1000000	-1000000	-1000000	
18.16	3.707	7131.0	6.269	364.51	-1000000	-1000000	-1000000	-1000000	
18.18	3.739	7128.5	6.304	364.52	-1000000	-1000000	-1000000	-1000000	
18.20	3.771	7126.1	6.340	364.57	-1000000	-1000000	-1000000	-1000000	
18.22	3.804	7123.6	6.375	364.74	-1000000	-1000000	-1000000	-1000000	
18.24	3.837	7120.7	6.410	364.90	-1000000	-1000000	-1000000	-1000000	
18.26	3.870	7117.4	6.446	364.93	-1000000	-1000000	-1000000	-1000000	
18.28	3.903	7113.9	6.482	365.04	-1000000	-1000000	-1000000	-1000000	
18.30	3.937	7110.5	6.517	365.14	-1000000	-1000000	-1000000	-1000000	
18.32	3.971	7106.6	6.553	365.12	-1000000	-1000000	-1000000	-1000000	
18.34	4.005	7102.2	6.589	365.24	-1000000	-1000000	-1000000	-1000000	
18.36	4.039	7097.4	6.625	365.29	-1000000	-1000000	-1000000	-1000000	
18.38	4.074	7092.5	6.662	365.27	-1000000	-1000000	-1000000	-1000000	
18.40	4.108	7087.5	6.698	365.41	-1000000	-1000000	-1000000	-1000000	
18.42	4.143	7082.0	6.735	365.56	-1000000	-1000000	-1000000	-1000000	
18.44	4.178	7076.4	6.771	365.64	-1000000	-1000000	-1000000	-1000000	
18.46	4.214	7070.8	6.808	365.80	-1000000	-1000000	-1000000	-1000000	
18.48	4.249	7064.6	6.845	365.90	-1000000	-1000000	-1000000	-1000000	
18.50	4.285	7058.0	6.882	366.09	-1000000	-1000000	-1000000	-1000000	
18.52	4.321	7051.3	6.919	366.22	-1000000	-1000000	-1000000	-1000000	
18.54	4.357	7044.0	6.957	366.31	-1000000	-1000000	-1000000	-1000000	
18.56	4.394	7036.1	6.994	366.49	-1000000	-1000000	-1000000	-1000000	
18.58	4.430	7028.0	7.031	366.86	-1000000	-1000000	-1000000	-1000000	
18.60	4.467	7019.3	7.069	366.97	-1000000	-1000000	-1000000	-1000000	
18.62	4.504	7010.1	7.107	367.06	-1000000	-1000000	-1000000	-1000000	
18.64	4.541	7000.4	7.145	367.27	-1000000	-1000000	-1000000	-1000000	
18.66	4.579	6990.5	7.183	367.48	-1000000	-1000000	-1000000	-1000000	
18.68	4.617	6980.6	7.220	367.61	-1000000	-1000000	-1000000	-1000000	
18.70	4.655	6970.3	7.259	367.71	-1000000	-1000000	-1000000	-1000000	
18.72	4.693	6959.1	7.297	367.85	-1000000	-1000000	-1000000	-1000000	
18.74	4.731	6947.1	7.336	367.95	-1000000	-1000000	-1000000	-1000000	
18.76	4.769	6934.3	7.374	368.11	-1000000	-1000000	-1000000	-1000000	
18.78	4.808	6921.1	7.413	368.64	-1000000	-1000000	-1000000	-1000000	
18.80	4.847	6907.6	7.452	369.06	-1000000	-1000000	-1000000	-1000000	
18.82	4.886	6893.8	7.491	369.22	-1000000	-1000000	-1000000	-1000000	
18.84	4.926	6879.6	7.530	369.41	-1000000	-1000000	-1000000	-1000000	
18.86	4.966	6864.6	7.569	369.62	-1000000	-1000000	-1000000	-1000000	
18.88	5.005	6848.5	7.608	369.85	-1000000	-1000000	-1000000	-1000000	
18.90	5.045	6831.7	7.647	370.08	-1000000	-1000000	-1000000	-1000000	
18.92	5.086	6814.3	7.687	370.30	-1000000	-1000000	-1000000	-1000000	
18.94	5.126	6796.4	7.727	370.48	-1000000	-1000000	-1000000	-1000000	
18.96	5.167	6777.5	7.766	370.71	-1000000	-1000000	-1000000	-1000000	
18.98	5.208	6757.6	7.806	370.89	-1000000	-1000000	-1000000	-1000000	
19.00	5.249	6737.4	7.846	371.06	-1000000	-1000000	-1000000	-1000000	
19.02	5.290	6716.1	7.886	371.40	-1000000	-1000000	-1000000	-1000000	
19.04	5.331	6693.5	7.926	371.70	-1000000	-1000000	-1000000	-1000000	
19.06	5.373	6670.1	7.967	372.01	-1000000	-1000000	-1000000	-1000000	
19.08	5.415	6646.1	8.008	372.28	-1000000	-1000000	-1000000	-1000000	
19.10	5.457	6620.6	8.048	372.48	-1000000	-1000000	-1000000	-1000000	
19.12	5.499	6594.0	8.089	372.91	-1000000	-1000000	-1000000	-1000000	
19.14	5.541	6566.8	8.130	373.30	-1000000	-1000000	-1000000	-1000000	
19.16	5.584	6538.7	8.171	373.61	-1000000	-1000000	-1000000	-1000000	
19.18	5.627	6508.9	8.212	373.92	-1000000	-1000000	-1000000	-1000000	
19.20	5.670	6477.6	8.253	374.39	-1000000	-1000000	-1000000	-1000000	
19.22	5.713	6445.0	8.294	374.72	-1000000	-1000000	-1000000	-1000000	
19.24	5.756	6411.4	8.336	374.93	-1000000	-1000000	-1000000	-1000000	
19.26	5.800	6376.5	8.377	375.32	-1000000	-1000000	-1000000	-1000000	
19.28	5.844	6339.6	8.419	375.78	-1000000	-1000000	-1000000	-1000000	
19.30	5.884	6300.4	8.461	376.08	-1000000	-1000000	-1000000	-1000000	
19.32	5.917	6256.8	8.503	376.29	-1000000	-1000000	-1000000	-1000000	
19.34	5.938	6205.0	8.544	376.42	-1000000	-1000000	-1000000	-1000000	
19.36	5.951	6140.6	8.582	376.35	-1000000	-1000000	-1000000	-1000000	
19.38	5.958	6063.7	8.613	376.27	-1000000	-1000000	-1000000	-1000000	
19.40	5.962	5979.0	8.632	376.20	-1000000	-1000000	-1000000	-1000000	
19.42	5.965	5893.1	8.641	376.09	-1000000	-1000000	-1000000	-1000000	
19.44	5.967	5812.4	8.645	375.94	-1000000	-1000000	-1000000	-1000000	
19.46	5.969	5742.7	8.647	375.61	-1000000	-1000000	-1000000	-1000000	
19.48	5.970	5686.1	8.648	375.39	-1000000	-1000000	-1000000	-1000000	
19.50	5.971	5640.7	8.648	375.23	-1000000	-1000000	-1000000	-1000000	
19.52	5.972	5603.0	8.649	375.10	-1000000	-1000000	-1000000	-1000000	
19.54	5.973	5571.1	8.649	374.89	-1000000	-1000000	-1000000	-1000000	
19.56	5.973	5544.4	8.649	374.57	-1000000	-1000000	-1000000	-1000000	
19.58	5.974	5521.6	8.649	374.40	-1000000	-1000000	-1000000	-1000000	
19.60	5.975	5502.0	8.649	374.37	-1000000	-1000000	-1000000	-1000000	
19.62	5.975	5485.2	8.649	374.11	-1000000	-1000000	-1000000	-1000000	
19.64	5.976	5470.3	8.649	373.70	-1000000	-1000000	-1000000	-1000000	
19.66	5.976	5457.1	8.649	373.36	-1000000	-1000000	-1000000	-1000000	
19.68	5.976	5445.0	8.649	373.22	-1000000	-1000000	-1000000	-1000000	
19.70	5.977	5434.1	8.649	373.19	-1000000	-1000000	-1000000	-1000000	
19.72	5.977	5424.5	8.649	373.00	-1000000	-1000000	-1000000	-1000000	
19.74	5.977	5415.5	8.649	372.78	-1000000	-1000000	-1000000	-1000000	
19.76	5.977	5407.2	8.649	372.74	-1000000	-1000000	-1000000	-1000000	
19.78	5.978	5399.6	8.649	372.60	-1000000	-1000000	-1000000	-1000000	
19.80	5.978	5392.8	8.649	372.38	-1000000	-1000000	-1000000	-1000000	
19.82	5.978	5386.3	8.649	372.22	-1000000	-1000000	-1000000	-1000000	
19.84	5.979	5380.0	8.649	372.11	-1000000	-1000000	-1000000	-1000000	
19.86	5.979	5374.2	8.649	371.97	-1000000	-1000000	-1000000	-1000000	
19.88	5.979	5368.9	8.649	371.74	-1000000	-1000000	-1000000	-1000000	
19.90	5.979	5364.4	8.649	371.51	-1000000	-1000000	-1000000	-1000000	
19.92	5.979	5360.1	8.649	371.46	-1000000	-1000000	-1000000	-1000000	
19.94	5.979	5355.7	8.649	371.22	-1000000	-1000000	-1000000	-1000000	
19.96	5.980	5351.7	8.649	370.84	-1000000	-1000000	-1000000	-1000000	
19.98	5.980	5347.9	8.649	370.54	-1000000	-1000000	-1000000	-1000000	
20.00	5.980	5343.9	8.649	370.38	-1000000	-1000000	-1000000	-1000000	
20.02	5.980	5340.1	8.649	370.36	-1000000	-1000000	-1000000	-1000000	
20.04	5.980	5336.6	8.649	370.40	-1000000	-1000000	-1000000	-1000000	
20.06	5.980	5333.4	8.648	370.25	-1000000	-1000000	-1000000	-1000000	
20.08	5.981	5329.6	8.648	370.07	-1000000	-1000000	-1000000	-1000000	
20.10	5.981	5325.4	8.648	369.94	-1000000	-1000000	-1000000	-1000000	
20.12	5.981	5322.2	8.648	369.81	-1000000	-1000000	-1000000	-1000000	
20.14	5.981	5319.4	8.648	369.80	-1000000	-1000000	-1000000	-1000000	
20.16	5.981	5316.3	8.648	369.70	-1000000	-1000000	-1000000	-1000000	
20.18	5.981	5313.7	8.648	369.63	-1000000	-1000000	-1000000	-1000000	
20.20	5.981	5311.3	8.648	369.42	-1000000	-1000000	-1000000	-1000000	
20.22	5.981	5308.8	8.648	369.12	-1000000	-1000000	-1000000	-1000000	
20.24	5.981	5306.2	8.647	368.92	-1000000	-1000000	-1000000	-1000000	
20.26	5.982	5303.9	8.647	368.75	-1000000	-1000000	-1000000	-1000000	
20.28	5.982	5301.3	8.647	368.59	-1000000	-1000000	-1000000	-1000000	
20.30	5.982	5298.4	8.647	368.38	-1000000	-1000000	-1000000	-1000000	
20.32	5.982	5295.7	8.647	368.24	-1000000	-1000000	-1000000	-1000000	
20.34	5.982	5292.9	8.647	368.21	-1000000	-1000000	-1000000	-1000000	
20.36	5.982	5290.0	8.647	368.35	-1000000	-1000000	-1000000	-1000000	
20.38	5.982	5287.4	8.646	368.43	-1000000	-1000000	-1000000	-1000000	
20.40	5.982	5284.6	8.646	368.14	-1000000	-1000000	-1000000	-1000000	
20.42	5.982	5281.4	8.646	367.72	-1000000	-1000000	-1000000	-1000000	
20.44	5.982	5277.9	8.646	367.64	-1000000	-1000000	-1000000	-1000000	
20.46	5.982	5274.5	8.645	367.76	-1000000	-1000000	-1000000	-1000000	
20.48	5.982	5271.2	8.645	367.75	-1000000	-1000000	-1000000	-1000000	
20.50	5.982	5268.0	8.645	367.68	-1000000	-1000000	-1000000	-1000000	
20.52	5.982	5264.6	8.645	367.51	-1000000	-1000000	-1000000	-1000000	
20.54	5.982	5261.2	8.645	367.32	-1000000	-1000000	-1000000	-1000000	
20.56	5.982	5257.7	8.645	367.18	-1000000	-1000000	-1000000	-1000000	
20.58	5.982	5253.9	8.644	366.98	-1000000	-1000000	-1000000	-1000000	
20.60	5.982	5249.9	8.644	366.78	-1000000	-1000000	-1000000	-1000000	
20.62	5.982	5245.7	8.644	366.63	-1000000	-1000000	-1000000	-1000000	
20.64	5.982	5241.6	8.643	366.51	-1000000	-1000000	-1000000	-1000000	
20.66	5.982	5237.4	8.643	366.40	-1000000	-1000000	-1000000	-1000000	
20.68	5.982	5232.9	8.643	366.31	-1000000	-1000000	-1000000	-1000000	
20.70	5.982	5228.3	8.643	366.27	-1000000	-1000000	-1000000	-1000000	
20.72	5.982	5223.5	8.642	366.14	-1000000	-1000000	-1000000	-1000000	
20.74	5.982	5218.9	8.642	365.87	-1000000	-1000000	-1000000	-1000000	
20.76	5.982	5213.9	8.642	365.76	-1000000	-1000000	-1000000	-1000000	
20.78	5.982	5208.6	8.641	365.69	-1000000	-1000000	-1000000	-1000000	
20.80	5.982	5203.4	8.641	365.59	-1000000	-1000000	-1000000	-1000000	
20.82	5.982	5198.2	8.641	365.47	-1000000	-1000000	-1000000	-1000000	
20.84	5.982	5193.2	8.640	365.49	-1000000	-1000000	-1000000	-1000000	
20.86	5.982	5188.1	8.640	365.53	-1000000	-1000000	-1000000	-1000000	
20.88	5.982	5182.7	8.640	365.42	-1000000	-1000000	-1000000	-1000000	
20.90	5.982	5177.0	8.639	365.35	-1000000	-1000000	-1000000	-1000000	
20.92	5.982	5171.2	8.639	365.39	-1000000	-1000000	-1000000	-1000000	
20.94	5.982	5165.7	8.639	365.31	-1000000	-1000000	-1000000	-1000000	
20.96	5.982	5160.1	8.638	365.16	-1000000	-1000000	-1000000	-1000000	
20.98	5.982	5154.6	8.638	365.01	-1000000	-1000000	-1000000	-1000000	
21.00	5.982	5148.7	8.638	364.85	-1000000	-1000000	-1000000	-1000000	
21.02	5.982	5142.6	8.637	364.64	-1000000	-1000000	-1000000	-1000000	
21.04	5.982	5136.1	8.637	364.51	-1000000	-1000000	-1000000	-1000000	
21.06	5.981	5129.7	8.636	364.58	-1000000	-1000000	-1000000	-1000000	
21.08	5.981	5123.8	8.636	364.46	-1000000	-1000000	-1000000	-1000000	
21.10	5.981	5117.8	8.635	364.32	-1000000	-1000000	-1000000	-1000000	
21.12	5.981	5111.3	8.635	364.26	-1000000	-1000000	-1000000	-1000000	
21.14	5.981	5104.5	8.635	364.19	-1000000	-1000000	-1000000	-1000000	
21.16	5.981	5097.8	8.634	364.08	-1000000	-1000000	-1000000	-1000000	
21.18	5.981	5091.2	8.634	363.96	-1000000	-1000000	-1000000	-1000000	
21.20	5.981	5083.9	8.633	363.86	-1000000	-1000000	-1000000	-1000000	
21.22	5.981	5076.5	8.633	363.61	-1000000	-1000000	-1000000	-1000000	
21.24	5.981	5069.4	8.633	363.34	-1000000	-1000000	-1000000	-1000000	
21.26	5.981	5062.3	8.632	363.19	-1000000	-1000000	-1000000	-1000000	
21.28	5.980	5054.8	8.632	363.01	-1000000	-1000000	-1000000	-1000000	
21.30	5.980	5047.3	8.631	362.92	-1000000	-1000000	-1000000	-1000000	
21.32	5.980	5039.7	8.631	362.88	-1000000	-1000000	-1000000	-1000000	
21.34	5.980	5031.9	8.630	362.73	-1000000	-1000000	-1000000	-1000000	
21.36	5.980	5024.0	8.630	362.61	-1000000	-1000000	-1000000	-1000000	
21.38	5.980	5015.7	8.629	362.72	-1000000	-1000000	-1000000	-1000000	
21.40	5.980	5007.4	8.628	362.61	-1000000	-1000000	-1000000	-1000000	
21.42	5.980	4998.9	8.628	362.45	-1000000	-1000000	-1000000	-1000000	
21.44	5.980	4990.4	8.627	362.35	-1000000	-1000000	-1000000	-1000000	
21.46	5.980	4981.7	8.627	362.21	-1000000	-1000000	-1000000	-1000000	
21.48	5.979	4973.1	8.626	362.03	-1000000	-1000000	-1000000	-1000000	
21.50	5.979	4964.7	8.626	361.95	-1000000	-1000000	-1000000	-1000000	
21.52	5.979	4956.3	8.625	361.86	-1000000	-1000000	-1000000	-1000000	
21.54	5.979	4947.7	8.625	361.89	-1000000	-1000000	-1000000	-1000000	
21.56	5.979	4938.1	8.624	361.85	-1000000	-1000000	-1000000	-1000000	
21.58	5.979	4928.8	8.624	361.72	-1000000	-1000000	-1000000	-1000000	
21.60	5.979	4919.4	8.623	361.51	-1000000	-1000000	-1000000	-1000000	
21.62	5.979	4909.6	8.622	361.19	-1000000	-1000000	-1000000	-1000000	
21.64	5.978	4899.5	8.622	360.83	-1000000	-1000000	-1000000	-1000000	
21.66	5.978	4889.5	8.621	360.68	-1000000	-1000000	-1000000	-1000000	
21.68	5.978	4879.1	8.621	360.73	-1000000	-1000000	-1000000	-1000000	
21.70	5.978	4868.3	8.620	360.82	-1000000	-1000000	-1000000	-1000000	
21.72	5.978	4857.7	8.619	360.75	-1000000	-1000000	-1000000	-1000000	
21.74	5.978	4847.2	8.619	360.74	-1000000	-1000000	-1000000	-1000000	
21.76	5.978	4836.6	8.618	360.57	-1000000	-1000000	-1000000	-1000000	
21.78	5.977	4825.8	8.618	360.45	-1000000	-1000000	-1000000	-1000000	
21.80	5.977	4814.7	8.617	360.38	-1000000	-1000000	-1000000	-1000000	
21.82	5.977	4803.2	8.616	360.26	-1000000	-1000000	-1000000	-1000000	
21.84	5.977	4791.7	8.615	360.11	-1000000	-1000000	-1000000	-1000000	
21.86	5.977	4780.2	8.615	359.90	-1000000	-1000000	-1000000	-1000000	
21.88	5.977	4768.9	8.614	359.74	-1000000	-1000000	-1000000	-1000000	
21.90	5.976	4757.8	8.614	359.63	-1000000	-1000000	-1000000	-1000000	
21.92	5.976	4746.2	8.613	359.53	-1000000	-1000000	-1000000	-1000000	
21.94	5.976	4734.5	8.612	359.39	-1000000	-1000000	-1000000	-1000000	
21.96	5.976	4722.4	8.611	359.27	-1000000	-1000000	-1000000	-1000000	
21.98	5.976	4710.3	8.611	359.31	-1000000	-1000000	-1000000	-1000000	
22.00	5.976	4698.2	8.610	359.36	-1000000	-1000000	-1000000	-1000000	
22.02	5.976	4685.8	8.609	359.05	-1000000	-1000000	-1000000	-1000000	
22.04	5.975	4673.3	8.609	358.91	-1000000	-1000000	-1000000	-1000000	
22.06	5.975	4660.6	8.608	359.02	-1000000	-1000000	-1000000	-1000000	
22.08	5.975	4647.7	8.607	359.15	-1000000	-1000000	-1000000	-1000000	
22.10	5.975	4635.1	8.606	359.03	-1000000	-1000000	-1000000	-1000000	
22.12	5.975	4622.2	8.606	358.75	-1000000	-1000000	-1000000	-1000000	
22.14	5.974	4608.3	8.605	358.83	-1000000	-1000000	-1000000	-1000000	
22.16	5.974	4594.4	8.604	358.93	-1000000	-1000000	-1000000	-1000000	
22.18	5.974	4580.8	8.603	358.84	-1000000	-1000000	-1000000	-1000000	
22.20	5.974	4566.3	8.602	358.68	-1000000	-1000000	-1000000	-1000000	
22.22	5.974	4551.2	8.602	358.50	-1000000	-1000000	-1000000	-1000000	
22.24	5.974	4536.0	8.601	358.31	-1000000	-1000000	-1000000	-1000000	
22.26	5.973	4520.5	8.600	358.14	-1000000	-1000000	-1000000	-1000000	
22.28	5.973	4504.2	8.599	358.21	-1000000	-1000000	-1000000	-1000000	
22.30	5.973	4486.9	8.598	358.40	-1000000	-1000000	-1000000	-1000000	
22.32	5.973	4468.3	8.598	358.64	-1000000	-1000000	-1000000	-1000000	
22.34	5.973	4447.4	8.597	359.01	-1000000	-1000000	-1000000	-1000000	
22.36	5.973	4423.5	8.596	359.38	-1000000	-1000000	-1000000	-1000000	
22.38	5.973	4396.8	8.595	359.77	-1000000	-1000000	-1000000	-1000000	
22.40	5.973	4368.1	8.594	360.36	-1000000	-1000000	-1000000	-1000000	
22.42	5.973	4338.9	8.593	360.84	-1000000	-1000000	-1000000	-1000000	
22.44	5.972	4311.2	8.592	360.94	-1000000	-1000000	-1000000	-1000000	
22.46	5.972	4286.4	8.592	361.04	-1000000	-1000000	-1000000	-1000000	
22.48	5.972	4264.8	8.591	361.23	-1000000	-1000000	-1000000	-1000000	
22.50	5.972	4245.6	8.590	361.50	-1000000	-1000000	-1000000	-1000000	
22.52	5.972	4227.7	8.589	361.56	-1000000	-1000000	-1000000	-1000000	
22.54	5.971	4210.6	8.588	361.34	-1000000	-1000000	-1000000	-1000000	
22.56	5.971	4193.8	8.587	361.29	-1000000	-1000000	-1000000	-1000000	
22.58	5.971	4177.0	8.586	361.10	-1000000	-1000000	-1000000	-1000000	
22.60	5.971	4160.5	8.585	360.93	-1000000	-1000000	-1000000	-1000000	
22.62	5.971	4143.8	8.584	360.77	-1000000	-1000000	-1000000	-1000000	
22.64	5.971	4127.5	8.583	360.59	-1000000	-1000000	-1000000	-1000000	
22.66	5.970	4111.4	8.583	360.51	-1000000	-1000000	-1000000	-1000000	
22.68	5.970	4094.8	8.582	360.55	-1000000	-1000000	-1000000	-1000000	
22.70	5.970	4078.6	8.581	360.47	-1000000	-1000000	-1000000	-1000000	
22.72	5.970	4062.5	8.580	360.30	-1000000	-1000000	-1000000	-1000000	
22.74	5.970	4046.2	8.579	360.27	-1000000	-1000000	-1000000	-1000000	
22.76	5.969	4029.5	8.578	360.37	-1000000	-1000000	-1000000	-1000000	
22.78	5.969	4012.8	8.577	360.43	-1000000	-1000000	-1000000	-1000000	
22.80	5.969	3995.8	8.576	360.39	-1000000	-1000000	-1000000	-1000000	
22.82	5.969	3978.4	8.575	360.39	-1000000	-1000000	-1000000	-1000000	
22.84	5.968	3961.0	8.574	360.36	-1000000	-1000000	-1000000	-1000000	
22.86	5.968	3944.0	8.573	360.26	-1000000	-1000000	-1000000	-1000000	
22.88	5.968	3927.1	8.572	360.01	-1000000	-1000000	-1000000	-1000000	
22.90	5.968	3909.9	8.571	359.92	-1000000	-1000000	-1000000	-1000000	
22.92	5.968	3892.4	8.570	359.88	-1000000	-1000000	-1000000	-1000000	
22.94	5.967	3874.8	8.569	359.64	-1000000	-1000000	-1000000	-1000000	
22.96	5.967	3857.2	8.568	359.63	-1000000	-1000000	-1000000	-1000000	
22.98	5.967	3839.9	8.567	359.57	-1000000	-1000000	-1000000	-1000000	
23.00	5.967	3822.4	8.566	359.36	-1000000	-1000000	-1000000	-1000000	
23.02	5.966	3804.6	8.565	359.37	-1000000	-1000000	-1000000	-1000000	
23.04	5.966	3786.3	8.564	359.46	-1000000	-1000000	-1000000	-1000000	
23.06	5.966	3768.0	8.563	359.34	-1000000	-1000000	-1000000	-1000000	
23.08	5.966	3749.9	8.561	359.30	-1000000	-1000000	-1000000	-1000000	
23.10	5.965	3731.8	8.560	359.20	-1000000	-1000000	-1000000	-1000000	
23.12	5.965	3713.9	8.559	359.12	-1000000	-1000000	-1000000	-1000000	
23.14	5.965	3695.7	8.558	359.15	-1000000	-1000000	-1000000	-1000000	
23.16	5.965	3677.2	8.557	359.10	-1000000	-1000000	-1000000	-1000000	
23.18	5.964	3658.7	8.556	359.01	-1000000	-1000000	-1000000	-1000000	
23.20	5.964	3639.9	8.555	358.87	-1000000	-1000000	-1000000	-1000000	
23.22	5.964	3620.8	8.554	358.80	-1000000	-1000000	-1000000	-1000000	
23.24	5.964	3601.8	8.552	358.78	-1000000	-1000000	-1000000	-1000000	
23.26	5.963	3583.2	8.551	358.82	-1000000	-1000000	-1000000	-1000000	
23.28	5.963	3564.7	8.550	358.65	-1000000	-1000000	-1000000	-1000000	
23.30	5.963	3546.0	8.549	358.51	-1000000	-1000000	-1000000	-1000000	
23.32	5.962	3526.9	8.548	358.32	-1000000	-1000000	-1000000	-1000000	
23.34	5.962	3507.6	8.547	358.16	-1000000	-1000000	-1000000	-1000000	
23.36	5.962	3488.4	8.546	358.10	-1000000	-1000000	-1000000	-1000000	
23.38	5.962	3469.3	8.545	358.11	-1000000	-1000000	-1000000	-1000000	
23.40	5.961	3449.8	8.543	358.07	-1000000	-1000000	-1000000	-1000000	
23.42	5.961	3430.3	8.542	357.94	-1000000	-1000000	-1000000	-1000000	
23.44	5.961	3411.3	8.541	358.04	-1000000	-1000000	-1000000	-1000000	
23.46	5.961	3391.7	8.540	358.20	-1000000	-1000000	-1000000	-1000000	
23.48	5.960	3370.9	8.538	358.22	-1000000	-1000000	-1000000	-1000000	
23.50	5.960	3350.1	8.537	358.09	-1000000	-1000000	-1000000	-1000000	
23.52	5.960	3329.7	8.536	357.97	-1000000	-1000000	-1000000	-1000000	
23.54	5.960	3309.5	8.535	357.80	-1000000	-1000000	-1000000	-1000000	
23.56	5.959	3289.3	8.534	357.71	-1000000	-1000000	-1000000	-1000000	
23.58	5.959	3268.5	8.532	357.74	-1000000	-1000000	-1000000	-1000000	
23.60	5.959	3247.8	8.531	357.65	-1000000	-1000000	-1000000	-1000000	
23.62	5.959	3226.9	8.530	357.55	-1000000	-1000000	-1000000	-1000000	
23.64	5.958	3205.5	8.528	357.29	-1000000	-1000000	-1000000	-1000000	
23.66	5.958	3183.8	8.527	357.00	-1000000	-1000000	-1000000	-1000000	
23.68	5.958	3162.3	8.526	356.87	-1000000	-1000000	-1000000	-1000000	
23.70	5.957	3141.0	8.525	356.86	-1000000	-1000000	-1000000	-1000000	
23.72	5.957	3119.4	8.524	356.99	-1000000	-1000000	-1000000	-1000000	
23.74	5.957	3097.5	8.522	357.07	-1000000	-1000000	-1000000	-1000000	
23.76	5.957	3075.6	8.521	356.90	-1000000	-1000000	-1000000	-1000000	
23.78	5.956	3053.7	8.520	356.86	-1000000	-1000000	-1000000	-1000000	
23.80	5.956	3031.6	8.518	356.87	-1000000	-1000000	-1000000	-1000000	
23.82	5.956	3009.4	8.517	356.77	-1000000	-1000000	-1000000	-1000000	
23.84	5.955	2987.5	8.516	356.65	-1000000	-1000000	-1000000	-1000000	
23.86	5.955	2965.6	8.514	356.57	-1000000	-1000000	-1000000	-1000000	
23.88	5.955	2943.1	8.513	356.50	-1000000	-1000000	-1000000	-1000000	
23.90	5.954	2920.6	8.512	356.45	-1000000	-1000000	-1000000	-1000000	
23.92	5.954	2898.1	8.510	356.41	-1000000	-1000000	-1000000	-1000000	
23.94	5.954	2875.5	8.509	356.30	-1000000	-1000000	-1000000	-1000000	
23.96	5.954	2852.5	8.508	356.17	-1000000	-1000000	-1000000	-1000000	
23.98	5.953	2829.6	8.506	355.97	-1000000	-1000000	-1000000	-1000000	
24.00	5.953	2806.9	8.505	355.87	-1000000	-1000000	-1000000	-1000000	
24.02	5.953	2783.9	8.504	355.84	-1000000	-1000000	-1000000	-1000000	
24.04	5.952	2760.6	8.502	355.79	-1000000	-1000000	-1000000	-1000000	
24.06	5.952	2736.9	8.500	355.59	-1000000	-1000000	-1000000	-1000000	
24.08	5.951	2713.3	8.499	355.56	-1000000	-1000000	-1000000	-1000000	
24.10	5.951	2689.7	8.498	355.74	-1000000	-1000000	-1000000	-1000000	
24.12	5.951	2665.5	8.496	355.74	-1000000	-1000000	-1000000	-1000000	
24.14	5.950	2641.4	8.495	355.78	-1000000	-1000000	-1000000	-1000000	
24.16	5.950	2617.4	8.494	355.62	-1000000	-1000000	-1000000	-1000000	
24.18	5.950	2593.1	8.492	355.37	-1000000	-1000000	-1000000	-1000000	
24.20	5.949	2568.4	8.491	355.25	-1000000	-1000000	-1000000	-1000000	
24.22	5.949	2543.4	8.489	355.20	-1000000	-1000000	-1000000	-1000000	
24.24	5.949	2518.4	8.488	355.16	-1000000	-1000000	-1000000	-1000000	
24.26	5.949	2493.3	8.486	355.08	-1000000	-1000000	-1000000	-1000000	
24.28	5.948	2467.9	8.485	354.91	-1000000	-1000000	-1000000	-1000000	
24.30	5.948	2442.3	8.483	354.66	-1000000	-1000000	-1000000	-1000000	
24.32	5.947	2416.3	8.482	354.53	-1000000	-1000000	-1000000	-1000000	
24.34	5.947	2390.3	8.480	354.56	-1000000	-1000000	-1000000	-1000000	
24.36	5.947	2364.3	8.479	354.53	-1000000	-1000000	-1000000	-1000000	
24.38	5.947	2338.3	8.477	354.34	-1000000	-1000000	-1000000	-1000000	
24.40	5.946	2312.1	8.476	354.07	-1000000	-1000000	-1000000	-1000000	
24.42	5.946	2285.9	8.474	354.05	-1000000	-1000000	-1000000	-1000000	
24.44	5.945	2259.8	8.473	354.06	-1000000	-1000000	-1000000	-1000000	
24.46	5.945	2233.3	8.471	354.08	-1000000	-1000000	-1000000	-1000000	
24.48	5.945	2206.5	8.469	354.21	-1000000	-1000000	-1000000	-1000000	
24.50	5.944	2179.6	8.468	354.23	-1000000	-1000000	-1000000	-1000000	
24.52	5.944	2152.7	8.466	354.08	-1000000	-1000000	-1000000	-1000000	
24.54	5.943	2125.9	8.465	354.04	-1000000	-1000000	-1000000	-1000000	
24.56	5.943	2098.4	8.463	354.08	-1000000	-1000000	-1000000	-1000000	
24.58	5.943	2070.9	8.462	354.23	-1000000	-1000000	-1000000	-1000000	
24.60	5.942	2043.3	8.460	354.20	-1000000	-1000000	-1000000	-1000000	
24.62	5.942	2015.7	8.459	353.71	-1000000	-1000000	-1000000	-1000000	
24.64	5.941	1988.2	8.457	353.31	-1000000	-1000000	-1000000	-1000000	
24.66	5.941	1960.1	8.455	353.27	-1000000	-1000000	-1000000	-1000000	
24.68	5.941	1931.6	8.454	353.14	-1000000	-1000000	-1000000	-1000000	
24.70	5.940	1903.4	8.452	353.12	-1000000	-1000000	-1000000	-1000000	
24.72	5.940	1875.0	8.450	353.21	-1000000	-1000000	-1000000	-1000000	
24.74	5.940	1846.8	8.449	353.11	-1000000	-1000000	-1000000	-1000000	
24.76	5.939	1818.6	8.447	352.98	-1000000	-1000000	-1000000	-1000000	
24.78	5.939	1790.3	8.445	352.80	-1000000	-1000000	-1000000	-1000000	
24.80	5.938	1761.9	8.444	352.81	-1000000	-1000000	-1000000	-1000000	
24.82	5.938	1733.3	8.442	352.94	-1000000	-1000000	-1000000	-1000000	
24.84	5.938	1704.8	8.441	352.92	-1000000	-1000000	-1000000	-1000000	
24.86	5.937	1676.4	8.439	352.77	-1000000	-1000000	-1000000	-1000000	
24.88	5.937	1647.5	8.437	352.50	-1000000	-1000000	-1000000	-1000000	
24.90	5.936	1618.4	8.436	352.49	-1000000	-1000000	-1000000	-1000000	
24.92	5.936	1589.3	8.434	352.89	-1000000	-1000000	-1000000	-1000000	
24.94	5.936	1559.8	8.432	352.92	-1000000	-1000000	-1000000	-1000000	
24.96	5.935	1529.9	8.430	352.58	-1000000	-1000000	-1000000	-1000000	
24.98	5.935	1500.4	8.429	352.26	-1000000	-1000000	-1000000	-1000000	
25.00	5.934	1470.8	8.427	351.93	-1000000	-1000000	-1000000	-1000000	
25.02	5.934	1440.8	8.425	351.78	-1000000	-1000000	-1000000	-1000000	
25.04	5.933	1410.6	8.424	351.59	-1000000	-1000000	-1000000	-1000000	
25.06	5.933	1380.1	8.422	351.48	-1000000	-1000000	-1000000	-1000000	
25.08	5.933	1349.7	8.420	351.52	-1000000	-1000000	-1000000	-1000000	
25.10	5.932	1319.2	8.418	351.56	-1000000	-1000000	-1000000	-1000000	
25.12	5.932	1288.4	8.417	351.62	-1000000	-1000000	-1000000	-1000000	
25.14	5.931	1257.8	8.415	351.67	-1000000	-1000000	-1000000	-1000000	
25.16	5.931	1227.6	8.413	351.66	-1000000	-1000000	-1000000	-1000000	
25.18	5.930	1197.6	8.411	351.69	-1000000	-1000000	-1000000	-1000000	
25.20	5.930	1167.6	8.410	351.75	-1000000	-1000000	-1000000	-1000000	
25.22	5.929	1137.1	8.408	351.58	-1000000	-1000000	-1000000	-1000000	
25.24	5.929	1106.1	8.406	351.27	-1000000	-1000000	-1000000	-1000000	
25.26	5.929	1075.3	8.404	351.06	-1000000	-1000000	-1000000	-1000000	
25.28	5.928	1044.3	8.402	350.75	-1000000	-1000000	-1000000	-1000000	
25.30	5.928	1012.6	8.401	350.62	-1000000	-1000000	-1000000	-1000000	
25.32	5.927	980.90	8.399	350.56	-1000000	-1000000	-1000000	-1000000	
25.34	5.927	949.10	8.397	350.44	-1000000	-1000000	-1000000	-1000000	
25.36	5.926	917.40	8.395	350.36	-1000000	-1000000	-1000000	-1000000	
25.38	5.926	885.74	8.393	350.27	-1000000	-1000000	-1000000	-1000000	
25.40	5.925	853.80	8.391	350.02	-1000000	-1000000	-1000000	-1000000	
25.42	5.925	821.91	8.390	349.77	-1000000	-1000000	-1000000	-1000000	
25.44	5.924	790.00	8.388	349.73	-1000000	-1000000	-1000000	-1000000	
25.46	5.924	757.47	8.386	349.92	-1000000	-1000000	-1000000	-1000000	
25.48	5.924	724.90	8.384	349.95	-1000000	-1000000	-1000000	-1000000	
25.50	5.923	692.58	8.382	349.95	-1000000	-1000000	-1000000	-1000000	
25.52	5.923	660.20	8.380	349.87	-1000000	-1000000	-1000000	-1000000	
25.54	5.922	627.74	8.378	349.77	-1000000	-1000000	-1000000	-1000000	
25.56	5.922	595.32	8.376	349.72	-1000000	-1000000	-1000000	-1000000	
25.58	5.921	562.98	8.374	349.63	-1000000	-1000000	-1000000	-1000000	
25.60	5.921	530.50	8.372	349.56	-1000000	-1000000	-1000000	-1000000	
25.62	5.920	497.53	8.371	349.43	-1000000	-1000000	-1000000	-1000000	
25.64	5.920	464.65	8.369	349.32	-1000000	-1000000	-1000000	-1000000	
25.66	5.919	431.86	8.367	349.26	-1000000	-1000000	-1000000	-1000000	
25.68	5.919	398.48	8.365	348.95	-1000000	-1000000	-1000000	-1000000	
25.70	5.918	364.84	8.363	348.65	-1000000	-1000000	-1000000	-1000000	
25.72	5.918	331.33	8.361	348.62	-1000000	-1000000	-1000000	-1000000	
25.74	5.917	297.87	8.359	348.53	-1000000	-1000000	-1000000	-1000000	
25.76	5.917	263.89	8.357	348.47	-1000000	-1000000	-1000000	-1000000	
25.78	5.916	229.43	8.355	348.44	-1000000	-1000000	-1000000	-1000000	