Zeit  1 - Standardmessrate [s]	Maytec [mm]	Kraft [N]	Standardwegaufnehmer [mm]	Pyrometer [°C]	Drehwinkel [V]	MX840_0_CH 6 [V]	MX840_0_CH 7 [V]	MX840_0_CH 8 [V]
0	0.04415	122.03	0.8550	300.12	-1000000	-1000000	-1000000	-1000000	
0.02000	0.04416	122.98	0.8550	300.16	-1000000	-1000000	-1000000	-1000000	
0.04000	0.04416	123.65	0.8550	300.16	-1000000	-1000000	-1000000	-1000000	
0.06000	0.04420	123.52	0.8550	300.10	-1000000	-1000000	-1000000	-1000000	
0.08000	0.04420	122.78	0.8550	300.09	-1000000	-1000000	-1000000	-1000000	
0.1000	0.04423	122.08	0.8552	300.14	-1000000	-1000000	-1000000	-1000000	
0.1200	0.04427	121.86	0.8555	300.17	-1000000	-1000000	-1000000	-1000000	
0.1400	0.04428	121.75	0.8556	300.14	-1000000	-1000000	-1000000	-1000000	
0.1600	0.04426	121.66	0.8557	300.08	-1000000	-1000000	-1000000	-1000000	
0.1800	0.04423	121.68	0.8557	300.10	-1000000	-1000000	-1000000	-1000000	
0.2000	0.04424	121.68	0.8557	300.16	-1000000	-1000000	-1000000	-1000000	
0.2200	0.04428	121.80	0.8557	300.17	-1000000	-1000000	-1000000	-1000000	
0.2400	0.04427	121.99	0.8558	300.11	-1000000	-1000000	-1000000	-1000000	
0.2600	0.04433	122.10	0.8557	300.08	-1000000	-1000000	-1000000	-1000000	
0.2800	0.04433	121.95	0.8557	300.13	-1000000	-1000000	-1000000	-1000000	
0.3000	0.04429	121.94	0.8556	300.17	-1000000	-1000000	-1000000	-1000000	
0.3200	0.04433	121.81	0.8556	300.16	-1000000	-1000000	-1000000	-1000000	
0.3400	0.04435	121.76	0.8558	300.10	-1000000	-1000000	-1000000	-1000000	
0.3600	0.04436	121.89	0.8562	300.09	-1000000	-1000000	-1000000	-1000000	
0.3800	0.04438	122.01	0.8564	300.14	-1000000	-1000000	-1000000	-1000000	
0.4000	0.04438	121.95	0.8564	300.17	-1000000	-1000000	-1000000	-1000000	
0.4200	0.04442	121.95	0.8565	300.13	-1000000	-1000000	-1000000	-1000000	
0.4400	0.04444	122.05	0.8565	300.09	-1000000	-1000000	-1000000	-1000000	
0.4600	0.04444	122.11	0.8564	300.11	-1000000	-1000000	-1000000	-1000000	
0.4800	0.04445	121.92	0.8563	300.16	-1000000	-1000000	-1000000	-1000000	
0.5000	0.04447	121.80	0.8563	300.17	-1000000	-1000000	-1000000	-1000000	
0.5200	0.04449	121.84	0.8563	300.12	-1000000	-1000000	-1000000	-1000000	
0.5400	0.04452	121.94	0.8563	300.08	-1000000	-1000000	-1000000	-1000000	
0.5600	0.04451	121.85	0.8562	300.12	-1000000	-1000000	-1000000	-1000000	
0.5800	0.04453	121.70	0.8564	300.17	-1000000	-1000000	-1000000	-1000000	
0.6000	0.04456	121.58	0.8569	300.16	-1000000	-1000000	-1000000	-1000000	
0.6200	0.04457	121.60	0.8571	300.10	-1000000	-1000000	-1000000	-1000000	
0.6400	0.04457	121.80	0.8572	300.09	-1000000	-1000000	-1000000	-1000000	
0.6600	0.04454	121.87	0.8571	300.14	-1000000	-1000000	-1000000	-1000000	
0.6800	0.04453	121.83	0.8571	300.17	-1000000	-1000000	-1000000	-1000000	
0.7000	0.04457	121.77	0.8571	300.13	-1000000	-1000000	-1000000	-1000000	
0.7200	0.04459	121.73	0.8570	300.08	-1000000	-1000000	-1000000	-1000000	
0.7400	0.04460	121.73	0.8569	300.11	-1000000	-1000000	-1000000	-1000000	
0.7600	0.04462	121.80	0.8569	300.16	-1000000	-1000000	-1000000	-1000000	
0.7800	0.04464	121.73	0.8570	300.17	-1000000	-1000000	-1000000	-1000000	
0.8000	0.04463	121.90	0.8570	300.11	-1000000	-1000000	-1000000	-1000000	
0.8200	0.04464	121.97	0.8572	300.08	-1000000	-1000000	-1000000	-1000000	
0.8400	0.04467	121.88	0.8575	300.13	-1000000	-1000000	-1000000	-1000000	
0.8600	0.04466	121.92	0.8577	300.17	-1000000	-1000000	-1000000	-1000000	
0.8800	0.04462	121.93	0.8577	300.15	-1000000	-1000000	-1000000	-1000000	
0.9000	0.04467	121.82	0.8577	300.09	-1000000	-1000000	-1000000	-1000000	
0.9200	0.04477	121.72	0.8577	300.09	-1000000	-1000000	-1000000	-1000000	
0.9400	0.04479	121.68	0.8576	300.15	-1000000	-1000000	-1000000	-1000000	
0.9600	0.04480	121.66	0.8577	300.18	-1000000	-1000000	-1000000	-1000000	
0.9800	0.04482	121.62	0.8576	300.13	-1000000	-1000000	-1000000	-1000000	
1.000	0.04483	121.82	0.8576	300.09	-1000000	-1000000	-1000000	-1000000	
1.020	0.04480	121.93	0.8577	300.11	-1000000	-1000000	-1000000	-1000000	
1.040	0.04478	121.82	0.8578	300.16	-1000000	-1000000	-1000000	-1000000	
1.060	0.04482	121.83	0.8579	300.17	-1000000	-1000000	-1000000	-1000000	
1.080	0.04484	121.83	0.8583	300.11	-1000000	-1000000	-1000000	-1000000	
1.100	0.04482	121.94	0.8585	300.08	-1000000	-1000000	-1000000	-1000000	
1.120	0.04485	122.09	0.8584	300.13	-1000000	-1000000	-1000000	-1000000	
1.140	0.04487	121.99	0.8583	300.16	-1000000	-1000000	-1000000	-1000000	
1.160	0.04489	121.73	0.8583	300.14	-1000000	-1000000	-1000000	-1000000	
1.180	0.04489	121.70	0.8583	300.09	-1000000	-1000000	-1000000	-1000000	
1.200	0.04488	121.82	0.8584	300.10	-1000000	-1000000	-1000000	-1000000	
1.220	0.04489	121.79	0.8584	300.15	-1000000	-1000000	-1000000	-1000000	
1.240	0.04492	121.79	0.8584	300.17	-1000000	-1000000	-1000000	-1000000	
1.260	0.04495	121.85	0.8584	300.12	-1000000	-1000000	-1000000	-1000000	
1.280	0.04496	121.98	0.8584	300.08	-1000000	-1000000	-1000000	-1000000	
1.300	0.04498	122.14	0.8585	300.11	-1000000	-1000000	-1000000	-1000000	
1.320	0.04500	122.08	0.8588	300.16	-1000000	-1000000	-1000000	-1000000	
1.340	0.04505	121.88	0.8590	300.17	-1000000	-1000000	-1000000	-1000000	
1.360	0.04503	121.93	0.8590	300.11	-1000000	-1000000	-1000000	-1000000	
1.380	0.04503	121.90	0.8590	300.09	-1000000	-1000000	-1000000	-1000000	
1.400	0.04507	121.65	0.8591	300.13	-1000000	-1000000	-1000000	-1000000	
1.420	0.04506	121.63	0.8591	300.17	-1000000	-1000000	-1000000	-1000000	
1.440	0.04505	121.94	0.8590	300.14	-1000000	-1000000	-1000000	-1000000	
1.460	0.04505	121.95	0.8589	300.09	-1000000	-1000000	-1000000	-1000000	
1.480	0.04508	121.62	0.8589	300.10	-1000000	-1000000	-1000000	-1000000	
1.500	0.04510	121.57	0.8590	300.15	-1000000	-1000000	-1000000	-1000000	
1.520	0.04508	121.69	0.8590	300.16	-1000000	-1000000	-1000000	-1000000	
1.540	0.04507	121.79	0.8590	300.11	-1000000	-1000000	-1000000	-1000000	
1.560	0.04510	121.88	0.8592	300.08	-1000000	-1000000	-1000000	-1000000	
1.580	0.04518	121.98	0.8595	300.12	-1000000	-1000000	-1000000	-1000000	
1.600	0.04520	122.06	0.8598	300.17	-1000000	-1000000	-1000000	-1000000	
1.620	0.04519	122.03	0.8598	300.16	-1000000	-1000000	-1000000	-1000000	
1.640	0.04518	121.83	0.8597	300.10	-1000000	-1000000	-1000000	-1000000	
1.660	0.04516	121.82	0.8597	300.09	-1000000	-1000000	-1000000	-1000000	
1.680	0.04520	121.81	0.8597	300.14	-1000000	-1000000	-1000000	-1000000	
1.700	0.04524	121.77	0.8597	300.17	-1000000	-1000000	-1000000	-1000000	
1.720	0.04524	121.82	0.8597	300.14	-1000000	-1000000	-1000000	-1000000	
1.740	0.04524	121.90	0.8597	300.09	-1000000	-1000000	-1000000	-1000000	
1.760	0.04529	121.81	0.8597	300.10	-1000000	-1000000	-1000000	-1000000	
1.780	0.04529	121.81	0.8597	300.15	-1000000	-1000000	-1000000	-1000000	
1.800	0.04528	121.98	0.8600	300.17	-1000000	-1000000	-1000000	-1000000	
1.820	0.04529	122.19	0.8602	300.12	-1000000	-1000000	-1000000	-1000000	
1.840	0.04532	122.75	0.8603	300.08	-1000000	-1000000	-1000000	-1000000	
1.860	0.04529	123.23	0.8603	300.12	-1000000	-1000000	-1000000	-1000000	
1.880	0.04528	123.38	0.8604	300.17	-1000000	-1000000	-1000000	-1000000	
1.900	0.04535	123.41	0.8604	300.15	-1000000	-1000000	-1000000	-1000000	
1.920	0.04539	123.42	0.8604	300.10	-1000000	-1000000	-1000000	-1000000	
1.940	0.04540	123.52	0.8604	300.09	-1000000	-1000000	-1000000	-1000000	
1.960	0.04542	123.50	0.8604	300.14	-1000000	-1000000	-1000000	-1000000	
1.980	0.04544	122.85	0.8605	300.17	-1000000	-1000000	-1000000	-1000000	
2.000	0.04549	122.10	0.8605	300.13	-1000000	-1000000	-1000000	-1000000	
2.020	0.04551	121.81	0.8605	300.09	-1000000	-1000000	-1000000	-1000000	
2.040	0.04547	121.66	0.8604	300.12	-1000000	-1000000	-1000000	-1000000	
2.060	0.04545	121.81	0.8605	300.17	-1000000	-1000000	-1000000	-1000000	
2.080	0.04548	122.11	0.8607	300.17	-1000000	-1000000	-1000000	-1000000	
2.100	0.04553	122.02	0.8609	300.12	-1000000	-1000000	-1000000	-1000000	
2.120	0.04557	121.81	0.8610	300.08	-1000000	-1000000	-1000000	-1000000	
2.140	0.04559	121.87	0.8610	300.13	-1000000	-1000000	-1000000	-1000000	
2.160	0.04557	122.03	0.8611	300.17	-1000000	-1000000	-1000000	-1000000	
2.180	0.04553	122.03	0.8610	300.16	-1000000	-1000000	-1000000	-1000000	
2.200	0.04553	122.59	0.8610	300.10	-1000000	-1000000	-1000000	-1000000	
2.220	0.04560	123.25	0.8610	300.09	-1000000	-1000000	-1000000	-1000000	
2.240	0.04563	123.60	0.8609	300.14	-1000000	-1000000	-1000000	-1000000	
2.260	0.04562	123.66	0.8610	300.17	-1000000	-1000000	-1000000	-1000000	
2.280	0.04559	123.54	0.8613	300.14	-1000000	-1000000	-1000000	-1000000	
2.300	0.04562	123.05	0.8615	300.09	-1000000	-1000000	-1000000	-1000000	
2.320	0.04567	122.26	0.8617	300.10	-1000000	-1000000	-1000000	-1000000	
2.340	0.04568	121.86	0.8617	300.16	-1000000	-1000000	-1000000	-1000000	
2.360	0.04566	121.87	0.8617	300.17	-1000000	-1000000	-1000000	-1000000	
2.380	0.04567	121.96	0.8617	300.12	-1000000	-1000000	-1000000	-1000000	
2.400	0.04566	121.97	0.8618	300.08	-1000000	-1000000	-1000000	-1000000	
2.420	0.04567	122.11	0.8617	300.12	-1000000	-1000000	-1000000	-1000000	
2.440	0.04572	122.19	0.8617	300.17	-1000000	-1000000	-1000000	-1000000	
2.460	0.04574	122.08	0.8617	300.16	-1000000	-1000000	-1000000	-1000000	
2.480	0.04574	122.10	0.8618	300.10	-1000000	-1000000	-1000000	-1000000	
2.500	0.04575	122.04	0.8617	300.09	-1000000	-1000000	-1000000	-1000000	
2.520	0.04577	121.76	0.8619	300.14	-1000000	-1000000	-1000000	-1000000	
2.540	0.04583	121.81	0.8622	300.17	-1000000	-1000000	-1000000	-1000000	
2.560	0.04588	122.52	0.8624	300.14	-1000000	-1000000	-1000000	-1000000	
2.580	0.04588	123.19	0.8625	300.09	-1000000	-1000000	-1000000	-1000000	
2.600	0.04587	123.57	0.8625	300.10	-1000000	-1000000	-1000000	-1000000	
2.620	0.04587	123.73	0.8625	300.15	-1000000	-1000000	-1000000	-1000000	
2.640	0.04585	123.59	0.8624	300.17	-1000000	-1000000	-1000000	-1000000	
2.660	0.04586	122.78	0.8623	300.11	-1000000	-1000000	-1000000	-1000000	
2.680	0.04590	121.99	0.8623	300.08	-1000000	-1000000	-1000000	-1000000	
2.700	0.04590	121.68	0.8624	300.12	-1000000	-1000000	-1000000	-1000000	
2.720	0.04589	121.71	0.8624	300.17	-1000000	-1000000	-1000000	-1000000	
2.740	0.04589	121.87	0.8624	300.15	-1000000	-1000000	-1000000	-1000000	
2.760	0.04591	121.87	0.8625	300.09	-1000000	-1000000	-1000000	-1000000	
2.780	0.04595	121.74	0.8628	300.10	-1000000	-1000000	-1000000	-1000000	
2.800	0.04596	121.78	0.8630	300.15	-1000000	-1000000	-1000000	-1000000	
2.820	0.04596	121.89	0.8630	300.18	-1000000	-1000000	-1000000	-1000000	
2.840	0.04598	121.82	0.8630	300.14	-1000000	-1000000	-1000000	-1000000	
2.860	0.04599	121.68	0.8630	300.09	-1000000	-1000000	-1000000	-1000000	
2.880	0.04601	121.86	0.8631	300.11	-1000000	-1000000	-1000000	-1000000	
2.900	0.04601	121.92	0.8631	300.16	-1000000	-1000000	-1000000	-1000000	
2.920	0.04606	121.96	0.8631	300.17	-1000000	-1000000	-1000000	-1000000	
2.940	0.04610	121.30	0.8631	300.11	-1000000	-1000000	-1000000	-1000000	
2.960	0.04609	120.29	0.8630	300.08	-1000000	-1000000	-1000000	-1000000	
2.980	0.04615	119.10	0.8631	300.12	-1000000	-1000000	-1000000	-1000000	
3.000	0.04619	117.86	0.8633	300.17	-1000000	-1000000	-1000000	-1000000	
3.020	0.04621	116.67	0.8636	300.15	-1000000	-1000000	-1000000	-1000000	
3.040	0.04625	115.61	0.8637	300.09	-1000000	-1000000	-1000000	-1000000	
3.060	0.04633	114.32	0.8637	300.09	-1000000	-1000000	-1000000	-1000000	
3.080	0.04642	112.28	0.8637	300.15	-1000000	-1000000	-1000000	-1000000	
3.100	0.04653	109.47	0.8641	300.17	-1000000	-1000000	-1000000	-1000000	
3.120	0.04670	105.31	0.8644	300.13	-1000000	-1000000	-1000000	-1000000	
3.140	0.04694	98.31	0.8645	300.08	-1000000	-1000000	-1000000	-1000000	
3.160	0.04728	86.93	0.8647	300.11	-1000000	-1000000	-1000000	-1000000	
3.180	0.04777	69.22	0.8651	300.16	-1000000	-1000000	-1000000	-1000000	
3.200	0.04840	44.67	0.8656	300.16	-1000000	-1000000	-1000000	-1000000	
3.220	0.04917	15.21	0.8663	300.10	-1000000	-1000000	-1000000	-1000000	
3.240	0.04990	-13.55	0.8673	300.08	-1000000	-1000000	-1000000	-1000000	
3.260	0.05071	-39.03	0.8688	300.13	-1000000	-1000000	-1000000	-1000000	
3.280	0.05157	-59.37	0.8711	300.17	-1000000	-1000000	-1000000	-1000000	
3.300	0.05244	-73.31	0.8738	300.14	-1000000	-1000000	-1000000	-1000000	
3.320	0.05332	-82.26	0.8767	300.09	-1000000	-1000000	-1000000	-1000000	
3.340	0.05427	-89.42	0.8796	300.10	-1000000	-1000000	-1000000	-1000000	
3.360	0.05534	-96.99	0.8827	300.15	-1000000	-1000000	-1000000	-1000000	
3.380	0.05661	-105.85	0.8860	300.17	-1000000	-1000000	-1000000	-1000000	
3.400	0.05795	-118.90	0.8893	300.12	-1000000	-1000000	-1000000	-1000000	
3.420	0.05932	-139.06	0.8929	300.09	-1000000	-1000000	-1000000	-1000000	
3.440	0.06076	-165.32	0.8965	300.12	-1000000	-1000000	-1000000	-1000000	
3.460	0.06225	-195.00	0.9002	300.17	-1000000	-1000000	-1000000	-1000000	
3.480	0.06387	-225.18	0.9045	300.16	-1000000	-1000000	-1000000	-1000000	
3.500	0.06551	-250.88	0.9093	300.10	-1000000	-1000000	-1000000	-1000000	
3.520	0.06711	-268.06	0.9147	300.09	-1000000	-1000000	-1000000	-1000000	
3.540	0.06871	-276.57	0.9205	300.14	-1000000	-1000000	-1000000	-1000000	
3.560	0.07037	-278.69	0.9265	300.17	-1000000	-1000000	-1000000	-1000000	
3.580	0.07200	-277.74	0.9325	300.13	-1000000	-1000000	-1000000	-1000000	
3.600	0.07358	-276.00	0.9385	300.08	-1000000	-1000000	-1000000	-1000000	
3.620	0.07516	-274.72	0.9446	300.10	-1000000	-1000000	-1000000	-1000000	
3.640	0.07676	-274.75	0.9506	300.15	-1000000	-1000000	-1000000	-1000000	
3.660	0.07841	-275.57	0.9567	300.16	-1000000	-1000000	-1000000	-1000000	
3.680	0.08008	-276.55	0.9628	300.11	-1000000	-1000000	-1000000	-1000000	
3.700	0.08172	-277.94	0.9688	300.09	-1000000	-1000000	-1000000	-1000000	
3.720	0.08335	-280.15	0.9749	300.13	-1000000	-1000000	-1000000	-1000000	
3.740	0.08498	-282.67	0.9808	300.17	-1000000	-1000000	-1000000	-1000000	
3.760	0.08662	-285.24	0.9869	300.15	-1000000	-1000000	-1000000	-1000000	
3.780	0.08824	-287.55	0.9930	300.10	-1000000	-1000000	-1000000	-1000000	
3.800	0.08988	-288.93	0.9991	300.09	-1000000	-1000000	-1000000	-1000000	
3.820	0.09156	-289.36	1.005	300.14	-1000000	-1000000	-1000000	-1000000	
3.840	0.09327	-289.39	1.011	300.17	-1000000	-1000000	-1000000	-1000000	
3.860	0.09500	-289.54	1.018	300.13	-1000000	-1000000	-1000000	-1000000	
3.880	0.09668	-290.21	1.024	300.08	-1000000	-1000000	-1000000	-1000000	
3.900	0.09830	-290.91	1.030	300.11	-1000000	-1000000	-1000000	-1000000	
3.920	0.09992	-291.41	1.036	300.16	-1000000	-1000000	-1000000	-1000000	
3.940	0.1016	-292.36	1.043	300.42	-1000000	-1000000	-1000000	-1000000	
3.960	0.1033	-293.67	1.049	301.69	-1000000	-1000000	-1000000	-1000000	
3.980	0.1049	-295.14	1.055	303.73	-1000000	-1000000	-1000000	-1000000	
4.000	0.1066	-295.81	1.061	306.01	-1000000	-1000000	-1000000	-1000000	
4.020	0.1082	-295.91	1.068	308.58	-1000000	-1000000	-1000000	-1000000	
4.040	0.1099	-295.96	1.074	311.69	-1000000	-1000000	-1000000	-1000000	
4.060	0.1115	-295.53	1.080	315.31	-1000000	-1000000	-1000000	-1000000	
4.080	0.1130	-294.13	1.087	318.50	-1000000	-1000000	-1000000	-1000000	
4.100	0.1142	-287.88	1.093	320.66	-1000000	-1000000	-1000000	-1000000	
4.120	0.1150	-268.90	1.099	322.03	-1000000	-1000000	-1000000	-1000000	
4.140	0.1156	-230.64	1.106	323.46	-1000000	-1000000	-1000000	-1000000	
4.160	0.1161	-172.65	1.112	324.35	-1000000	-1000000	-1000000	-1000000	
4.180	0.1164	-101.45	1.117	324.88	-1000000	-1000000	-1000000	-1000000	
4.200	0.1165	-27.07	1.122	325.00	-1000000	-1000000	-1000000	-1000000	
4.220	0.1165	39.08	1.126	325.24	-1000000	-1000000	-1000000	-1000000	
4.240	0.1165	87.32	1.128	325.79	-1000000	-1000000	-1000000	-1000000	
4.260	0.1165	115.61	1.129	326.18	-1000000	-1000000	-1000000	-1000000	
4.280	0.1165	128.44	1.129	325.87	-1000000	-1000000	-1000000	-1000000	
4.300	0.1165	132.65	1.129	325.75	-1000000	-1000000	-1000000	-1000000	
4.320	0.1165	132.82	1.128	325.20	-1000000	-1000000	-1000000	-1000000	
4.340	0.1166	131.67	1.128	324.69	-1000000	-1000000	-1000000	-1000000	
4.360	0.1166	130.72	1.128	324.32	-1000000	-1000000	-1000000	-1000000	
4.380	0.1165	130.15	1.128	324.34	-1000000	-1000000	-1000000	-1000000	
4.400	0.1165	129.30	1.128	324.65	-1000000	-1000000	-1000000	-1000000	
4.420	0.1165	128.67	1.128	324.78	-1000000	-1000000	-1000000	-1000000	
4.440	0.1165	128.53	1.128	324.45	-1000000	-1000000	-1000000	-1000000	
4.460	0.1165	129.02	1.128	324.15	-1000000	-1000000	-1000000	-1000000	
4.480	0.1165	129.65	1.128	324.00	-1000000	-1000000	-1000000	-1000000	
4.500	0.1165	130.16	1.128	324.17	-1000000	-1000000	-1000000	-1000000	
4.520	0.1166	130.53	1.128	324.28	-1000000	-1000000	-1000000	-1000000	
4.540	0.1166	130.99	1.128	323.93	-1000000	-1000000	-1000000	-1000000	
4.560	0.1165	131.69	1.128	323.93	-1000000	-1000000	-1000000	-1000000	
4.580	0.1165	132.02	1.128	324.09	-1000000	-1000000	-1000000	-1000000	
4.600	0.1166	132.18	1.128	324.23	-1000000	-1000000	-1000000	-1000000	
4.620	0.1166	132.89	1.128	324.30	-1000000	-1000000	-1000000	-1000000	
4.640	0.1166	133.48	1.128	324.28	-1000000	-1000000	-1000000	-1000000	
4.660	0.1166	133.66	1.128	323.97	-1000000	-1000000	-1000000	-1000000	
4.680	0.1166	133.67	1.128	323.98	-1000000	-1000000	-1000000	-1000000	
4.700	0.1165	134.24	1.128	323.88	-1000000	-1000000	-1000000	-1000000	
4.720	0.1166	134.84	1.127	323.48	-1000000	-1000000	-1000000	-1000000	
4.740	0.1166	135.17	1.127	323.22	-1000000	-1000000	-1000000	-1000000	
4.760	0.1166	135.18	1.127	323.02	-1000000	-1000000	-1000000	-1000000	
4.780	0.1166	135.08	1.127	323.32	-1000000	-1000000	-1000000	-1000000	
4.800	0.1165	135.09	1.127	323.66	-1000000	-1000000	-1000000	-1000000	
4.820	0.1166	135.11	1.127	323.76	-1000000	-1000000	-1000000	-1000000	
4.840	0.1166	135.15	1.127	323.51	-1000000	-1000000	-1000000	-1000000	
4.860	0.1166	135.32	1.126	323.53	-1000000	-1000000	-1000000	-1000000	
4.880	0.1166	135.62	1.126	323.58	-1000000	-1000000	-1000000	-1000000	
4.900	0.1165	135.50	1.126	323.45	-1000000	-1000000	-1000000	-1000000	
4.920	0.1165	134.60	1.126	323.41	-1000000	-1000000	-1000000	-1000000	
4.940	0.1165	133.72	1.126	323.74	-1000000	-1000000	-1000000	-1000000	
4.960	0.1165	133.51	1.126	323.87	-1000000	-1000000	-1000000	-1000000	
4.980	0.1165	133.61	1.126	323.75	-1000000	-1000000	-1000000	-1000000	
5.000	0.1166	133.05	1.126	323.12	-1000000	-1000000	-1000000	-1000000	
5.020	0.1167	132.38	1.126	322.83	-1000000	-1000000	-1000000	-1000000	
5.040	0.1167	131.84	1.126	323.30	-1000000	-1000000	-1000000	-1000000	
5.060	0.1166	131.05	1.125	323.70	-1000000	-1000000	-1000000	-1000000	
5.080	0.1166	130.08	1.125	323.90	-1000000	-1000000	-1000000	-1000000	
5.100	0.1166	128.93	1.125	323.76	-1000000	-1000000	-1000000	-1000000	
5.120	0.1166	127.58	1.125	324.04	-1000000	-1000000	-1000000	-1000000	
5.140	0.1166	125.86	1.125	324.40	-1000000	-1000000	-1000000	-1000000	
5.160	0.1167	123.64	1.125	324.21	-1000000	-1000000	-1000000	-1000000	
5.180	0.1168	120.64	1.125	324.05	-1000000	-1000000	-1000000	-1000000	
5.200	0.1168	116.16	1.125	324.22	-1000000	-1000000	-1000000	-1000000	
5.220	0.1169	109.06	1.125	324.98	-1000000	-1000000	-1000000	-1000000	
5.240	0.1171	98.64	1.125	325.78	-1000000	-1000000	-1000000	-1000000	
5.260	0.1174	82.32	1.125	326.82	-1000000	-1000000	-1000000	-1000000	
5.280	0.1177	57.79	1.126	328.08	-1000000	-1000000	-1000000	-1000000	
5.300	0.1181	27.09	1.126	328.88	-1000000	-1000000	-1000000	-1000000	
5.320	0.1186	-2.811	1.127	329.40	-1000000	-1000000	-1000000	-1000000	
5.340	0.1191	-21.32	1.128	330.03	-1000000	-1000000	-1000000	-1000000	
5.360	0.1195	-21.96	1.130	330.68	-1000000	-1000000	-1000000	-1000000	
5.380	0.1196	-4.117	1.133	331.17	-1000000	-1000000	-1000000	-1000000	
5.400	0.1197	29.05	1.135	331.58	-1000000	-1000000	-1000000	-1000000	
5.420	0.1198	67.75	1.138	331.74	-1000000	-1000000	-1000000	-1000000	
5.440	0.1198	101.07	1.139	331.70	-1000000	-1000000	-1000000	-1000000	
5.460	0.1197	123.25	1.140	331.85	-1000000	-1000000	-1000000	-1000000	
5.480	0.1198	134.91	1.140	332.01	-1000000	-1000000	-1000000	-1000000	
5.500	0.1198	139.83	1.140	332.14	-1000000	-1000000	-1000000	-1000000	
5.520	0.1199	140.81	1.140	332.17	-1000000	-1000000	-1000000	-1000000	
5.540	0.1198	140.43	1.140	332.25	-1000000	-1000000	-1000000	-1000000	
5.560	0.1198	139.79	1.139	332.26	-1000000	-1000000	-1000000	-1000000	
5.580	0.1198	138.95	1.139	332.28	-1000000	-1000000	-1000000	-1000000	
5.600	0.1198	138.49	1.139	332.27	-1000000	-1000000	-1000000	-1000000	
5.620	0.1198	138.54	1.139	332.21	-1000000	-1000000	-1000000	-1000000	
5.640	0.1198	138.17	1.139	332.18	-1000000	-1000000	-1000000	-1000000	
5.660	0.1198	137.35	1.138	332.01	-1000000	-1000000	-1000000	-1000000	
5.680	0.1198	136.92	1.138	332.11	-1000000	-1000000	-1000000	-1000000	
5.700	0.1198	136.61	1.138	332.26	-1000000	-1000000	-1000000	-1000000	
5.720	0.1198	135.95	1.138	332.10	-1000000	-1000000	-1000000	-1000000	
5.740	0.1198	135.39	1.138	331.95	-1000000	-1000000	-1000000	-1000000	
5.760	0.1198	134.82	1.138	331.83	-1000000	-1000000	-1000000	-1000000	
5.780	0.1198	134.06	1.138	331.94	-1000000	-1000000	-1000000	-1000000	
5.800	0.1199	133.14	1.138	332.13	-1000000	-1000000	-1000000	-1000000	
5.820	0.1199	131.82	1.137	332.33	-1000000	-1000000	-1000000	-1000000	
5.840	0.1199	130.41	1.137	332.36	-1000000	-1000000	-1000000	-1000000	
5.860	0.1199	128.75	1.137	331.97	-1000000	-1000000	-1000000	-1000000	
5.880	0.1200	126.90	1.137	332.00	-1000000	-1000000	-1000000	-1000000	
5.900	0.1200	124.30	1.137	332.53	-1000000	-1000000	-1000000	-1000000	
5.920	0.1200	119.98	1.137	332.83	-1000000	-1000000	-1000000	-1000000	
5.940	0.1201	113.79	1.137	332.95	-1000000	-1000000	-1000000	-1000000	
5.960	0.1203	104.52	1.137	333.49	-1000000	-1000000	-1000000	-1000000	
5.980	0.1206	89.66	1.137	334.57	-1000000	-1000000	-1000000	-1000000	
6.000	0.1210	67.22	1.137	335.88	-1000000	-1000000	-1000000	-1000000	
6.020	0.1214	37.14	1.138	337.01	-1000000	-1000000	-1000000	-1000000	
6.040	0.1218	4.539	1.138	337.80	-1000000	-1000000	-1000000	-1000000	
6.060	0.1223	-20.55	1.140	338.59	-1000000	-1000000	-1000000	-1000000	
6.080	0.1227	-30.23	1.141	339.44	-1000000	-1000000	-1000000	-1000000	
6.100	0.1230	-21.11	1.144	339.88	-1000000	-1000000	-1000000	-1000000	
6.120	0.1232	5.330	1.146	340.13	-1000000	-1000000	-1000000	-1000000	
6.140	0.1233	41.79	1.149	340.90	-1000000	-1000000	-1000000	-1000000	
6.160	0.1233	77.73	1.151	341.67	-1000000	-1000000	-1000000	-1000000	
6.180	0.1233	105.45	1.152	341.74	-1000000	-1000000	-1000000	-1000000	
6.200	0.1233	122.69	1.152	341.35	-1000000	-1000000	-1000000	-1000000	
6.220	0.1233	131.31	1.152	341.10	-1000000	-1000000	-1000000	-1000000	
6.240	0.1232	134.59	1.152	341.18	-1000000	-1000000	-1000000	-1000000	
6.260	0.1232	135.33	1.152	341.29	-1000000	-1000000	-1000000	-1000000	
6.280	0.1233	135.32	1.152	341.56	-1000000	-1000000	-1000000	-1000000	
6.300	0.1233	135.31	1.152	341.63	-1000000	-1000000	-1000000	-1000000	
6.320	0.1233	135.44	1.152	341.60	-1000000	-1000000	-1000000	-1000000	
6.340	0.1234	135.43	1.152	341.59	-1000000	-1000000	-1000000	-1000000	
6.360	0.1233	135.28	1.152	341.64	-1000000	-1000000	-1000000	-1000000	
6.380	0.1233	135.29	1.152	341.68	-1000000	-1000000	-1000000	-1000000	
6.400	0.1234	135.47	1.151	341.78	-1000000	-1000000	-1000000	-1000000	
6.420	0.1234	135.49	1.151	341.99	-1000000	-1000000	-1000000	-1000000	
6.440	0.1234	135.38	1.151	342.05	-1000000	-1000000	-1000000	-1000000	
6.460	0.1233	135.37	1.151	341.95	-1000000	-1000000	-1000000	-1000000	
6.480	0.1233	135.36	1.151	341.72	-1000000	-1000000	-1000000	-1000000	
6.500	0.1233	135.43	1.151	341.56	-1000000	-1000000	-1000000	-1000000	
6.520	0.1234	135.42	1.151	341.58	-1000000	-1000000	-1000000	-1000000	
6.540	0.1234	135.36	1.151	341.79	-1000000	-1000000	-1000000	-1000000	
6.560	0.1234	135.26	1.150	341.85	-1000000	-1000000	-1000000	-1000000	
6.580	0.1234	134.76	1.150	341.97	-1000000	-1000000	-1000000	-1000000	
6.600	0.1234	133.99	1.150	342.09	-1000000	-1000000	-1000000	-1000000	
6.620	0.1234	133.27	1.150	342.06	-1000000	-1000000	-1000000	-1000000	
6.640	0.1234	131.96	1.151	342.14	-1000000	-1000000	-1000000	-1000000	
6.660	0.1235	130.10	1.150	342.29	-1000000	-1000000	-1000000	-1000000	
6.680	0.1235	127.55	1.150	342.28	-1000000	-1000000	-1000000	-1000000	
6.700	0.1235	124.37	1.150	342.36	-1000000	-1000000	-1000000	-1000000	
6.720	0.1236	119.78	1.150	342.85	-1000000	-1000000	-1000000	-1000000	
6.740	0.1237	113.04	1.150	343.63	-1000000	-1000000	-1000000	-1000000	
6.760	0.1238	102.59	1.150	344.25	-1000000	-1000000	-1000000	-1000000	
6.780	0.1242	85.23	1.150	344.92	-1000000	-1000000	-1000000	-1000000	
6.800	0.1246	60.15	1.151	345.92	-1000000	-1000000	-1000000	-1000000	
6.820	0.1250	29.69	1.151	346.98	-1000000	-1000000	-1000000	-1000000	
6.840	0.1254	1.233	1.152	347.72	-1000000	-1000000	-1000000	-1000000	
6.860	0.1258	-17.04	1.153	348.20	-1000000	-1000000	-1000000	-1000000	
6.880	0.1261	-19.67	1.155	348.66	-1000000	-1000000	-1000000	-1000000	
6.900	0.1262	-3.737	1.156	349.07	-1000000	-1000000	-1000000	-1000000	
6.920	0.1264	26.46	1.158	349.47	-1000000	-1000000	-1000000	-1000000	
6.940	0.1264	61.15	1.160	349.73	-1000000	-1000000	-1000000	-1000000	
6.960	0.1265	91.54	1.162	349.92	-1000000	-1000000	-1000000	-1000000	
6.980	0.1265	112.96	1.163	350.01	-1000000	-1000000	-1000000	-1000000	
7.000	0.1265	125.50	1.164	350.11	-1000000	-1000000	-1000000	-1000000	
7.020	0.1265	131.39	1.163	350.36	-1000000	-1000000	-1000000	-1000000	
7.040	0.1265	133.26	1.162	350.49	-1000000	-1000000	-1000000	-1000000	
7.060	0.1265	133.75	1.163	350.30	-1000000	-1000000	-1000000	-1000000	
7.080	0.1265	133.57	1.164	350.23	-1000000	-1000000	-1000000	-1000000	
7.100	0.1265	133.40	1.164	350.47	-1000000	-1000000	-1000000	-1000000	
7.120	0.1265	133.43	1.163	350.55	-1000000	-1000000	-1000000	-1000000	
7.140	0.1265	133.69	1.162	350.59	-1000000	-1000000	-1000000	-1000000	
7.160	0.1265	134.30	1.163	350.72	-1000000	-1000000	-1000000	-1000000	
7.180	0.1265	134.81	1.164	350.77	-1000000	-1000000	-1000000	-1000000	
7.200	0.1266	135.04	1.164	350.70	-1000000	-1000000	-1000000	-1000000	
7.220	0.1265	135.07	1.163	350.80	-1000000	-1000000	-1000000	-1000000	
7.240	0.1265	135.12	1.162	350.96	-1000000	-1000000	-1000000	-1000000	
7.260	0.1265	135.36	1.162	350.72	-1000000	-1000000	-1000000	-1000000	
7.280	0.1265	135.31	1.162	350.59	-1000000	-1000000	-1000000	-1000000	
7.300	0.1265	135.03	1.163	350.75	-1000000	-1000000	-1000000	-1000000	
7.320	0.1266	134.59	1.163	350.87	-1000000	-1000000	-1000000	-1000000	
7.340	0.1266	134.18	1.162	350.91	-1000000	-1000000	-1000000	-1000000	
7.360	0.1266	133.36	1.161	351.10	-1000000	-1000000	-1000000	-1000000	
7.380	0.1266	131.76	1.161	351.20	-1000000	-1000000	-1000000	-1000000	
7.400	0.1266	129.45	1.161	351.33	-1000000	-1000000	-1000000	-1000000	
7.420	0.1267	126.21	1.161	351.52	-1000000	-1000000	-1000000	-1000000	
7.440	0.1268	121.49	1.162	351.78	-1000000	-1000000	-1000000	-1000000	
7.460	0.1269	115.12	1.163	352.16	-1000000	-1000000	-1000000	-1000000	
7.480	0.1271	105.42	1.162	352.93	-1000000	-1000000	-1000000	-1000000	
7.500	0.1273	89.77	1.161	353.83	-1000000	-1000000	-1000000	-1000000	
7.520	0.1276	66.34	1.161	354.84	-1000000	-1000000	-1000000	-1000000	
7.540	0.1280	35.85	1.162	355.83	-1000000	-1000000	-1000000	-1000000	
7.560	0.1285	5.356	1.163	356.74	-1000000	-1000000	-1000000	-1000000	
7.580	0.1289	-14.95	1.165	357.49	-1000000	-1000000	-1000000	-1000000	
7.600	0.1291	-20.68	1.166	358.03	-1000000	-1000000	-1000000	-1000000	
7.620	0.1293	-10.66	1.168	358.60	-1000000	-1000000	-1000000	-1000000	
7.640	0.1294	15.00	1.170	359.02	-1000000	-1000000	-1000000	-1000000	
7.660	0.1295	47.81	1.172	359.28	-1000000	-1000000	-1000000	-1000000	
7.680	0.1295	77.85	1.173	359.36	-1000000	-1000000	-1000000	-1000000	
7.700	0.1296	100.29	1.174	359.48	-1000000	-1000000	-1000000	-1000000	
7.720	0.1296	114.24	1.175	359.75	-1000000	-1000000	-1000000	-1000000	
7.740	0.1297	122.00	1.175	360.00	-1000000	-1000000	-1000000	-1000000	
7.760	0.1297	125.94	1.175	360.09	-1000000	-1000000	-1000000	-1000000	
7.780	0.1297	127.96	1.175	360.21	-1000000	-1000000	-1000000	-1000000	
7.800	0.1297	129.28	1.175	360.06	-1000000	-1000000	-1000000	-1000000	
7.820	0.1297	130.14	1.175	359.73	-1000000	-1000000	-1000000	-1000000	
7.840	0.1297	130.43	1.175	359.69	-1000000	-1000000	-1000000	-1000000	
7.860	0.1297	130.35	1.175	359.87	-1000000	-1000000	-1000000	-1000000	
7.880	0.1297	130.81	1.174	359.95	-1000000	-1000000	-1000000	-1000000	
7.900	0.1297	131.64	1.174	360.06	-1000000	-1000000	-1000000	-1000000	
7.920	0.1297	132.06	1.175	360.11	-1000000	-1000000	-1000000	-1000000	
7.940	0.1297	132.02	1.175	360.29	-1000000	-1000000	-1000000	-1000000	
7.960	0.1298	132.30	1.175	360.40	-1000000	-1000000	-1000000	-1000000	
7.980	0.1298	133.01	1.175	360.51	-1000000	-1000000	-1000000	-1000000	
8.000	0.1298	133.48	1.175	360.44	-1000000	-1000000	-1000000	-1000000	
8.020	0.1297	133.99	1.174	360.26	-1000000	-1000000	-1000000	-1000000	
8.040	0.1297	134.72	1.174	360.10	-1000000	-1000000	-1000000	-1000000	
8.060	0.1297	135.14	1.174	360.19	-1000000	-1000000	-1000000	-1000000	
8.080	0.1297	135.58	1.174	360.24	-1000000	-1000000	-1000000	-1000000	
8.100	0.1298	136.42	1.174	360.33	-1000000	-1000000	-1000000	-1000000	
8.120	0.1298	137.12	1.174	360.35	-1000000	-1000000	-1000000	-1000000	
8.140	0.1298	137.05	1.174	360.25	-1000000	-1000000	-1000000	-1000000	
8.160	0.1297	137.07	1.174	360.35	-1000000	-1000000	-1000000	-1000000	
8.180	0.1297	137.86	1.173	360.39	-1000000	-1000000	-1000000	-1000000	
8.200	0.1297	138.53	1.173	360.19	-1000000	-1000000	-1000000	-1000000	
8.220	0.1297	138.75	1.173	360.11	-1000000	-1000000	-1000000	-1000000	
8.240	0.1297	138.59	1.173	360.35	-1000000	-1000000	-1000000	-1000000	
8.260	0.1297	138.30	1.173	360.48	-1000000	-1000000	-1000000	-1000000	
8.280	0.1297	138.34	1.173	360.48	-1000000	-1000000	-1000000	-1000000	
8.300	0.1297	138.63	1.173	360.60	-1000000	-1000000	-1000000	-1000000	
8.320	0.1297	138.74	1.173	360.71	-1000000	-1000000	-1000000	-1000000	
8.340	0.1297	138.79	1.173	360.64	-1000000	-1000000	-1000000	-1000000	
8.360	0.1297	138.70	1.172	360.70	-1000000	-1000000	-1000000	-1000000	
8.380	0.1296	138.51	1.172	360.83	-1000000	-1000000	-1000000	-1000000	
8.400	0.1296	138.44	1.172	361.03	-1000000	-1000000	-1000000	-1000000	
8.420	0.1297	138.23	1.172	360.98	-1000000	-1000000	-1000000	-1000000	
8.440	0.1297	137.47	1.172	360.83	-1000000	-1000000	-1000000	-1000000	
8.460	0.1297	136.97	1.172	360.79	-1000000	-1000000	-1000000	-1000000	
8.480	0.1297	137.07	1.172	360.89	-1000000	-1000000	-1000000	-1000000	
8.500	0.1297	137.11	1.171	360.90	-1000000	-1000000	-1000000	-1000000	
8.520	0.1297	137.03	1.171	361.01	-1000000	-1000000	-1000000	-1000000	
8.540	0.1296	136.61	1.171	360.99	-1000000	-1000000	-1000000	-1000000	
8.560	0.1296	135.76	1.171	361.09	-1000000	-1000000	-1000000	-1000000	
8.580	0.1296	135.17	1.171	361.11	-1000000	-1000000	-1000000	-1000000	
8.600	0.1297	135.05	1.171	361.09	-1000000	-1000000	-1000000	-1000000	
8.620	0.1297	135.23	1.171	361.11	-1000000	-1000000	-1000000	-1000000	
8.640	0.1297	135.36	1.171	361.04	-1000000	-1000000	-1000000	-1000000	
8.660	0.1296	135.39	1.171	361.14	-1000000	-1000000	-1000000	-1000000	
8.680	0.1296	134.90	1.171	361.16	-1000000	-1000000	-1000000	-1000000	
8.700	0.1296	134.29	1.171	361.02	-1000000	-1000000	-1000000	-1000000	
8.720	0.1296	134.00	1.171	360.95	-1000000	-1000000	-1000000	-1000000	
8.740	0.1296	133.87	1.170	360.93	-1000000	-1000000	-1000000	-1000000	
8.760	0.1296	133.61	1.170	361.09	-1000000	-1000000	-1000000	-1000000	
8.780	0.1296	133.34	1.170	361.31	-1000000	-1000000	-1000000	-1000000	
8.800	0.1296	133.21	1.170	361.36	-1000000	-1000000	-1000000	-1000000	
8.820	0.1296	133.42	1.170	361.19	-1000000	-1000000	-1000000	-1000000	
8.840	0.1296	133.49	1.170	361.26	-1000000	-1000000	-1000000	-1000000	
8.860	0.1296	133.48	1.170	361.46	-1000000	-1000000	-1000000	-1000000	
8.880	0.1296	133.48	1.170	361.46	-1000000	-1000000	-1000000	-1000000	
8.900	0.1296	133.66	1.170	361.33	-1000000	-1000000	-1000000	-1000000	
8.920	0.1296	133.68	1.170	361.20	-1000000	-1000000	-1000000	-1000000	
8.940	0.1296	133.60	1.169	361.27	-1000000	-1000000	-1000000	-1000000	
8.960	0.1296	133.54	1.169	361.54	-1000000	-1000000	-1000000	-1000000	
8.980	0.1295	133.51	1.169	361.42	-1000000	-1000000	-1000000	-1000000	
9.000	0.1295	133.58	1.169	361.27	-1000000	-1000000	-1000000	-1000000	
9.020	0.1295	133.76	1.169	361.37	-1000000	-1000000	-1000000	-1000000	
9.040	0.1295	133.73	1.169	361.55	-1000000	-1000000	-1000000	-1000000	
9.060	0.1295	133.58	1.169	361.70	-1000000	-1000000	-1000000	-1000000	
9.080	0.1295	133.58	1.169	361.59	-1000000	-1000000	-1000000	-1000000	
9.100	0.1295	133.67	1.169	361.42	-1000000	-1000000	-1000000	-1000000	
9.120	0.1295	133.74	1.169	361.40	-1000000	-1000000	-1000000	-1000000	
9.140	0.1295	133.62	1.168	361.42	-1000000	-1000000	-1000000	-1000000	
9.160	0.1295	133.40	1.169	361.29	-1000000	-1000000	-1000000	-1000000	
9.180	0.1294	133.54	1.169	361.33	-1000000	-1000000	-1000000	-1000000	
9.200	0.1294	133.24	1.168	361.52	-1000000	-1000000	-1000000	-1000000	
9.220	0.1294	132.51	1.169	361.69	-1000000	-1000000	-1000000	-1000000	
9.240	0.1294	132.66	1.169	361.74	-1000000	-1000000	-1000000	-1000000	
9.260	0.1295	133.21	1.169	361.83	-1000000	-1000000	-1000000	-1000000	
9.280	0.1294	133.17	1.168	361.96	-1000000	-1000000	-1000000	-1000000	
9.300	0.1294	133.18	1.168	361.86	-1000000	-1000000	-1000000	-1000000	
9.320	0.1294	133.46	1.168	361.62	-1000000	-1000000	-1000000	-1000000	
9.340	0.1294	133.28	1.168	361.56	-1000000	-1000000	-1000000	-1000000	
9.360	0.1294	132.57	1.168	361.56	-1000000	-1000000	-1000000	-1000000	
9.380	0.1293	132.41	1.168	361.63	-1000000	-1000000	-1000000	-1000000	
9.400	0.1294	132.79	1.168	361.71	-1000000	-1000000	-1000000	-1000000	
9.420	0.1294	132.67	1.168	361.75	-1000000	-1000000	-1000000	-1000000	
9.440	0.1294	132.31	1.168	361.82	-1000000	-1000000	-1000000	-1000000	
9.460	0.1294	132.07	1.168	361.85	-1000000	-1000000	-1000000	-1000000	
9.480	0.1294	131.90	1.168	361.75	-1000000	-1000000	-1000000	-1000000	
9.500	0.1293	131.85	1.168	361.69	-1000000	-1000000	-1000000	-1000000	
9.520	0.1293	131.99	1.167	361.69	-1000000	-1000000	-1000000	-1000000	
9.540	0.1293	132.16	1.167	361.84	-1000000	-1000000	-1000000	-1000000	
9.560	0.1293	131.96	1.167	362.01	-1000000	-1000000	-1000000	-1000000	
9.580	0.1293	131.79	1.167	362.00	-1000000	-1000000	-1000000	-1000000	
9.600	0.1294	131.78	1.167	362.00	-1000000	-1000000	-1000000	-1000000	
9.620	0.1293	131.79	1.167	361.98	-1000000	-1000000	-1000000	-1000000	
9.640	0.1293	132.00	1.167	361.96	-1000000	-1000000	-1000000	-1000000	
9.660	0.1293	132.33	1.167	362.08	-1000000	-1000000	-1000000	-1000000	
9.680	0.1293	132.94	1.167	362.15	-1000000	-1000000	-1000000	-1000000	
9.700	0.1292	133.29	1.167	362.08	-1000000	-1000000	-1000000	-1000000	
9.720	0.1293	133.03	1.167	362.05	-1000000	-1000000	-1000000	-1000000	
9.740	0.1294	133.17	1.167	361.97	-1000000	-1000000	-1000000	-1000000	
9.760	0.1294	133.32	1.167	362.00	-1000000	-1000000	-1000000	-1000000	
9.780	0.1293	133.33	1.167	362.30	-1000000	-1000000	-1000000	-1000000	
9.800	0.1292	133.26	1.166	362.33	-1000000	-1000000	-1000000	-1000000	
9.820	0.1292	133.43	1.167	362.27	-1000000	-1000000	-1000000	-1000000	
9.840	0.1292	133.66	1.166	362.17	-1000000	-1000000	-1000000	-1000000	
9.860	0.1293	133.56	1.166	362.11	-1000000	-1000000	-1000000	-1000000	
9.880	0.1292	133.38	1.167	362.21	-1000000	-1000000	-1000000	-1000000	
9.900	0.1292	133.38	1.166	362.20	-1000000	-1000000	-1000000	-1000000	
9.920	0.1293	132.96	1.166	362.03	-1000000	-1000000	-1000000	-1000000	
9.940	0.1292	132.23	1.166	361.97	-1000000	-1000000	-1000000	-1000000	
9.960	0.1292	131.89	1.166	362.06	-1000000	-1000000	-1000000	-1000000	
9.980	0.1292	131.96	1.166	362.19	-1000000	-1000000	-1000000	-1000000	
10.00	0.1292	132.21	1.166	362.34	-1000000	-1000000	-1000000	-1000000	
10.02	0.1292	132.10	1.166	362.25	-1000000	-1000000	-1000000	-1000000	
10.04	0.1292	131.86	1.166	362.22	-1000000	-1000000	-1000000	-1000000	
10.06	0.1292	131.79	1.166	362.23	-1000000	-1000000	-1000000	-1000000	
10.08	0.1292	131.77	1.166	362.07	-1000000	-1000000	-1000000	-1000000	
10.10	0.1291	131.73	1.166	362.02	-1000000	-1000000	-1000000	-1000000	
10.12	0.1291	131.68	1.166	362.27	-1000000	-1000000	-1000000	-1000000	
10.14	0.1291	131.69	1.166	362.50	-1000000	-1000000	-1000000	-1000000	
10.16	0.1291	131.81	1.165	362.43	-1000000	-1000000	-1000000	-1000000	
10.18	0.1290	132.19	1.166	362.28	-1000000	-1000000	-1000000	-1000000	
10.20	0.1291	132.20	1.165	362.17	-1000000	-1000000	-1000000	-1000000	
10.22	0.1291	132.09	1.165	362.12	-1000000	-1000000	-1000000	-1000000	
10.24	0.1291	132.04	1.165	362.11	-1000000	-1000000	-1000000	-1000000	
10.26	0.1291	131.97	1.166	362.20	-1000000	-1000000	-1000000	-1000000	
10.28	0.1291	132.05	1.165	362.44	-1000000	-1000000	-1000000	-1000000	
10.30	0.1290	132.00	1.165	362.50	-1000000	-1000000	-1000000	-1000000	
10.32	0.1290	131.85	1.165	362.50	-1000000	-1000000	-1000000	-1000000	
10.34	0.1291	131.57	1.165	362.41	-1000000	-1000000	-1000000	-1000000	
10.36	0.1290	131.63	1.165	362.34	-1000000	-1000000	-1000000	-1000000	
10.38	0.1290	131.88	1.165	362.42	-1000000	-1000000	-1000000	-1000000	
10.40	0.1290	131.98	1.165	362.31	-1000000	-1000000	-1000000	-1000000	
10.42	0.1291	131.94	1.164	362.24	-1000000	-1000000	-1000000	-1000000	
10.44	0.1290	131.93	1.164	362.19	-1000000	-1000000	-1000000	-1000000	
10.46	0.1289	131.84	1.165	362.15	-1000000	-1000000	-1000000	-1000000	
10.48	0.1290	131.92	1.165	362.19	-1000000	-1000000	-1000000	-1000000	
10.50	0.1290	132.05	1.164	362.36	-1000000	-1000000	-1000000	-1000000	
10.52	0.1290	131.98	1.164	362.46	-1000000	-1000000	-1000000	-1000000	
10.54	0.1289	131.93	1.165	362.25	-1000000	-1000000	-1000000	-1000000	
10.56	0.1289	132.01	1.165	362.14	-1000000	-1000000	-1000000	-1000000	
10.58	0.1289	131.94	1.164	362.16	-1000000	-1000000	-1000000	-1000000	
10.60	0.1289	131.96	1.164	362.15	-1000000	-1000000	-1000000	-1000000	
10.62	0.1289	131.92	1.165	362.22	-1000000	-1000000	-1000000	-1000000	
10.64	0.1289	131.90	1.165	362.36	-1000000	-1000000	-1000000	-1000000	
10.66	0.1288	131.99	1.164	362.35	-1000000	-1000000	-1000000	-1000000	
10.68	0.1288	132.08	1.164	362.30	-1000000	-1000000	-1000000	-1000000	
10.70	0.1289	131.98	1.164	362.22	-1000000	-1000000	-1000000	-1000000	
10.72	0.1289	131.84	1.164	362.25	-1000000	-1000000	-1000000	-1000000	
10.74	0.1289	131.78	1.164	362.25	-1000000	-1000000	-1000000	-1000000	
10.76	0.1289	131.69	1.163	362.19	-1000000	-1000000	-1000000	-1000000	
10.78	0.1288	131.82	1.164	362.19	-1000000	-1000000	-1000000	-1000000	
10.80	0.1288	131.86	1.164	362.24	-1000000	-1000000	-1000000	-1000000	
10.82	0.1288	131.86	1.164	362.20	-1000000	-1000000	-1000000	-1000000	
10.84	0.1288	131.93	1.163	362.23	-1000000	-1000000	-1000000	-1000000	
10.86	0.1287	131.90	1.164	362.16	-1000000	-1000000	-1000000	-1000000	
10.88	0.1288	131.83	1.164	362.12	-1000000	-1000000	-1000000	-1000000	
10.90	0.1288	131.95	1.164	362.22	-1000000	-1000000	-1000000	-1000000	
10.92	0.1288	132.09	1.163	362.33	-1000000	-1000000	-1000000	-1000000	
10.94	0.1288	132.12	1.162	362.32	-1000000	-1000000	-1000000	-1000000	
10.96	0.1287	132.01	1.163	362.07	-1000000	-1000000	-1000000	-1000000	
10.98	0.1287	131.88	1.164	361.95	-1000000	-1000000	-1000000	-1000000	
11.00	0.1287	131.83	1.163	362.15	-1000000	-1000000	-1000000	-1000000	
11.02	0.1287	131.99	1.163	362.32	-1000000	-1000000	-1000000	-1000000	
11.04	0.1288	132.15	1.162	362.39	-1000000	-1000000	-1000000	-1000000	
11.06	0.1288	132.17	1.163	362.41	-1000000	-1000000	-1000000	-1000000	
11.08	0.1287	131.87	1.164	362.46	-1000000	-1000000	-1000000	-1000000	
11.10	0.1286	131.60	1.163	362.44	-1000000	-1000000	-1000000	-1000000	
11.12	0.1286	131.61	1.163	362.30	-1000000	-1000000	-1000000	-1000000	
11.14	0.1286	131.90	1.162	362.27	-1000000	-1000000	-1000000	-1000000	
11.16	0.1286	132.03	1.163	362.24	-1000000	-1000000	-1000000	-1000000	
11.18	0.1286	131.94	1.163	362.29	-1000000	-1000000	-1000000	-1000000	
11.20	0.1286	131.67	1.163	362.31	-1000000	-1000000	-1000000	-1000000	
11.22	0.1286	131.66	1.162	362.37	-1000000	-1000000	-1000000	-1000000	
11.24	0.1286	131.84	1.162	362.43	-1000000	-1000000	-1000000	-1000000	
11.26	0.1286	131.99	1.162	362.35	-1000000	-1000000	-1000000	-1000000	
11.28	0.1286	131.89	1.162	362.25	-1000000	-1000000	-1000000	-1000000	
11.30	0.1285	131.75	1.163	362.19	-1000000	-1000000	-1000000	-1000000	
11.32	0.1285	131.75	1.163	362.15	-1000000	-1000000	-1000000	-1000000	
11.34	0.1285	131.83	1.162	362.11	-1000000	-1000000	-1000000	-1000000	
11.36	0.1285	131.98	1.162	362.20	-1000000	-1000000	-1000000	-1000000	
11.38	0.1285	132.06	1.162	362.36	-1000000	-1000000	-1000000	-1000000	
11.40	0.1285	131.97	1.162	362.29	-1000000	-1000000	-1000000	-1000000	
11.42	0.1285	131.92	1.163	362.14	-1000000	-1000000	-1000000	-1000000	
11.44	0.1285	131.96	1.163	362.03	-1000000	-1000000	-1000000	-1000000	
11.46	0.1285	131.67	1.162	362.09	-1000000	-1000000	-1000000	-1000000	
11.48	0.1285	131.56	1.161	362.03	-1000000	-1000000	-1000000	-1000000	
11.50	0.1285	131.46	1.161	362.02	-1000000	-1000000	-1000000	-1000000	
11.52	0.1284	131.53	1.161	362.01	-1000000	-1000000	-1000000	-1000000	
11.54	0.1284	131.80	1.161	362.10	-1000000	-1000000	-1000000	-1000000	
11.56	0.1285	131.79	1.162	362.16	-1000000	-1000000	-1000000	-1000000	
11.58	0.1285	131.84	1.163	362.09	-1000000	-1000000	-1000000	-1000000	
11.60	0.1284	131.95	1.162	362.14	-1000000	-1000000	-1000000	-1000000	
11.62	0.1283	131.97	1.162	362.33	-1000000	-1000000	-1000000	-1000000	
11.64	0.1283	131.93	1.161	362.30	-1000000	-1000000	-1000000	-1000000	
11.66	0.1283	131.94	1.161	362.17	-1000000	-1000000	-1000000	-1000000	
11.68	0.1283	132.00	1.161	362.17	-1000000	-1000000	-1000000	-1000000	
11.70	0.1283	131.95	1.162	362.31	-1000000	-1000000	-1000000	-1000000	
11.72	0.1283	131.91	1.162	362.40	-1000000	-1000000	-1000000	-1000000	
11.74	0.1283	131.97	1.162	362.28	-1000000	-1000000	-1000000	-1000000	
11.76	0.1283	131.96	1.162	362.13	-1000000	-1000000	-1000000	-1000000	
11.78	0.1283	131.90	1.161	362.18	-1000000	-1000000	-1000000	-1000000	
11.80	0.1283	131.93	1.160	362.18	-1000000	-1000000	-1000000	-1000000	
11.82	0.1282	132.06	1.160	362.20	-1000000	-1000000	-1000000	-1000000	
11.84	0.1282	132.06	1.160	362.29	-1000000	-1000000	-1000000	-1000000	
11.86	0.1282	131.96	1.160	362.35	-1000000	-1000000	-1000000	-1000000	
11.88	0.1282	131.76	1.160	362.21	-1000000	-1000000	-1000000	-1000000	
11.90	0.1282	131.40	1.161	362.00	-1000000	-1000000	-1000000	-1000000	
11.92	0.1282	131.14	1.162	362.03	-1000000	-1000000	-1000000	-1000000	
11.94	0.1282	131.59	1.162	362.02	-1000000	-1000000	-1000000	-1000000	
11.96	0.1282	131.97	1.162	362.10	-1000000	-1000000	-1000000	-1000000	
11.98	0.1282	131.88	1.161	362.08	-1000000	-1000000	-1000000	-1000000	
12.00	0.1281	131.82	1.160	362.06	-1000000	-1000000	-1000000	-1000000	
12.02	0.1281	131.87	1.160	362.10	-1000000	-1000000	-1000000	-1000000	
12.04	0.1281	132.04	1.160	362.04	-1000000	-1000000	-1000000	-1000000	
12.06	0.1281	132.09	1.159	361.95	-1000000	-1000000	-1000000	-1000000	
12.08	0.1281	132.05	1.159	361.96	-1000000	-1000000	-1000000	-1000000	
12.10	0.1281	132.09	1.160	361.91	-1000000	-1000000	-1000000	-1000000	
12.12	0.1280	131.55	1.159	361.95	-1000000	-1000000	-1000000	-1000000	
12.14	0.1280	130.49	1.160	361.97	-1000000	-1000000	-1000000	-1000000	
12.16	0.1280	129.91	1.160	361.88	-1000000	-1000000	-1000000	-1000000	
12.18	0.1280	129.96	1.160	361.93	-1000000	-1000000	-1000000	-1000000	
12.20	0.1280	130.78	1.161	362.14	-1000000	-1000000	-1000000	-1000000	
12.22	0.1281	131.67	1.161	362.00	-1000000	-1000000	-1000000	-1000000	
12.24	0.1281	132.04	1.162	361.89	-1000000	-1000000	-1000000	-1000000	
12.26	0.1280	132.07	1.161	361.80	-1000000	-1000000	-1000000	-1000000	
12.28	0.1279	131.99	1.161	361.71	-1000000	-1000000	-1000000	-1000000	
12.30	0.1279	131.92	1.160	361.75	-1000000	-1000000	-1000000	-1000000	
12.32	0.1279	131.89	1.159	361.72	-1000000	-1000000	-1000000	-1000000	
12.34	0.1279	131.88	1.159	361.81	-1000000	-1000000	-1000000	-1000000	
12.36	0.1279	131.98	1.159	361.80	-1000000	-1000000	-1000000	-1000000	
12.38	0.1279	132.00	1.159	361.69	-1000000	-1000000	-1000000	-1000000	
12.40	0.1279	131.90	1.159	361.75	-1000000	-1000000	-1000000	-1000000	
12.42	0.1279	131.93	1.159	361.73	-1000000	-1000000	-1000000	-1000000	
12.44	0.1279	132.00	1.159	361.81	-1000000	-1000000	-1000000	-1000000	
12.46	0.1278	131.34	1.159	361.74	-1000000	-1000000	-1000000	-1000000	
12.48	0.1277	130.63	1.159	361.58	-1000000	-1000000	-1000000	-1000000	
12.50	0.1277	130.32	1.159	361.57	-1000000	-1000000	-1000000	-1000000	
12.52	0.1277	130.20	1.159	361.72	-1000000	-1000000	-1000000	-1000000	
12.54	0.1278	130.06	1.159	361.69	-1000000	-1000000	-1000000	-1000000	
12.56	0.1278	130.11	1.159	361.73	-1000000	-1000000	-1000000	-1000000	
12.58	0.1278	130.36	1.158	361.75	-1000000	-1000000	-1000000	-1000000	
12.60	0.1277	130.78	1.158	361.75	-1000000	-1000000	-1000000	-1000000	
12.62	0.1277	131.50	1.158	361.62	-1000000	-1000000	-1000000	-1000000	
12.64	0.1277	131.89	1.158	361.43	-1000000	-1000000	-1000000	-1000000	
12.66	0.1276	131.92	1.159	361.40	-1000000	-1000000	-1000000	-1000000	
12.68	0.1276	131.89	1.159	361.40	-1000000	-1000000	-1000000	-1000000	
12.70	0.1277	131.99	1.159	361.43	-1000000	-1000000	-1000000	-1000000	
12.72	0.1277	131.98	1.159	361.54	-1000000	-1000000	-1000000	-1000000	
12.74	0.1277	131.94	1.159	361.48	-1000000	-1000000	-1000000	-1000000	
12.76	0.1277	132.03	1.159	361.46	-1000000	-1000000	-1000000	-1000000	
12.78	0.1276	132.01	1.159	361.52	-1000000	-1000000	-1000000	-1000000	
12.80	0.1276	131.95	1.159	361.43	-1000000	-1000000	-1000000	-1000000	
12.82	0.1276	131.84	1.159	361.39	-1000000	-1000000	-1000000	-1000000	
12.84	0.1276	131.19	1.159	361.36	-1000000	-1000000	-1000000	-1000000	
12.86	0.1276	130.56	1.158	361.24	-1000000	-1000000	-1000000	-1000000	
12.88	0.1276	130.39	1.158	361.30	-1000000	-1000000	-1000000	-1000000	
12.90	0.1275	130.34	1.158	361.36	-1000000	-1000000	-1000000	-1000000	
12.92	0.1275	130.20	1.158	361.42	-1000000	-1000000	-1000000	-1000000	
12.94	0.1275	130.68	1.159	361.45	-1000000	-1000000	-1000000	-1000000	
12.96	0.1275	131.50	1.159	361.35	-1000000	-1000000	-1000000	-1000000	
12.98	0.1274	131.96	1.159	361.18	-1000000	-1000000	-1000000	-1000000	
13.00	0.1274	132.00	1.159	361.19	-1000000	-1000000	-1000000	-1000000	
13.02	0.1274	131.96	1.159	361.24	-1000000	-1000000	-1000000	-1000000	
13.04	0.1274	132.13	1.159	361.35	-1000000	-1000000	-1000000	-1000000	
13.06	0.1274	132.06	1.159	361.51	-1000000	-1000000	-1000000	-1000000	
13.08	0.1274	132.05	1.159	361.46	-1000000	-1000000	-1000000	-1000000	
13.10	0.1274	132.30	1.159	361.17	-1000000	-1000000	-1000000	-1000000	
13.12	0.1273	132.31	1.159	361.01	-1000000	-1000000	-1000000	-1000000	
13.14	0.1274	132.18	1.159	361.04	-1000000	-1000000	-1000000	-1000000	
13.16	0.1274	132.02	1.158	361.02	-1000000	-1000000	-1000000	-1000000	
13.18	0.1274	131.99	1.158	361.04	-1000000	-1000000	-1000000	-1000000	
13.20	0.1273	132.05	1.158	361.17	-1000000	-1000000	-1000000	-1000000	
13.22	0.1273	132.01	1.159	361.15	-1000000	-1000000	-1000000	-1000000	
13.24	0.1273	132.00	1.159	360.96	-1000000	-1000000	-1000000	-1000000	
13.26	0.1272	131.96	1.159	360.85	-1000000	-1000000	-1000000	-1000000	
13.28	0.1272	131.76	1.159	360.89	-1000000	-1000000	-1000000	-1000000	
13.30	0.1271	131.68	1.159	360.93	-1000000	-1000000	-1000000	-1000000	
13.32	0.1271	131.90	1.159	360.84	-1000000	-1000000	-1000000	-1000000	
13.34	0.1272	132.12	1.159	360.72	-1000000	-1000000	-1000000	-1000000	
13.36	0.1272	132.10	1.159	360.57	-1000000	-1000000	-1000000	-1000000	
13.38	0.1272	131.99	1.158	360.52	-1000000	-1000000	-1000000	-1000000	
13.40	0.1272	131.97	1.158	360.66	-1000000	-1000000	-1000000	-1000000	
13.42	0.1272	131.98	1.158	360.74	-1000000	-1000000	-1000000	-1000000	
13.44	0.1272	132.10	1.158	360.74	-1000000	-1000000	-1000000	-1000000	
13.46	0.1271	132.08	1.158	360.65	-1000000	-1000000	-1000000	-1000000	
13.48	0.1271	132.05	1.158	360.60	-1000000	-1000000	-1000000	-1000000	
13.50	0.1271	131.98	1.158	360.71	-1000000	-1000000	-1000000	-1000000	
13.52	0.1271	131.84	1.158	360.82	-1000000	-1000000	-1000000	-1000000	
13.54	0.1271	131.95	1.158	360.91	-1000000	-1000000	-1000000	-1000000	
13.56	0.1271	132.01	1.158	360.77	-1000000	-1000000	-1000000	-1000000	
13.58	0.1270	131.96	1.158	360.51	-1000000	-1000000	-1000000	-1000000	
13.60	0.1270	131.93	1.158	360.42	-1000000	-1000000	-1000000	-1000000	
13.62	0.1269	131.92	1.158	360.55	-1000000	-1000000	-1000000	-1000000	
13.64	0.1269	131.97	1.157	360.59	-1000000	-1000000	-1000000	-1000000	
13.66	0.1268	131.84	1.156	360.59	-1000000	-1000000	-1000000	-1000000	
13.68	0.1269	131.74	1.156	360.57	-1000000	-1000000	-1000000	-1000000	
13.70	0.1269	131.81	1.156	360.49	-1000000	-1000000	-1000000	-1000000	
13.72	0.1269	131.76	1.156	360.22	-1000000	-1000000	-1000000	-1000000	
13.74	0.1268	131.81	1.157	359.95	-1000000	-1000000	-1000000	-1000000	
13.76	0.1268	131.87	1.157	359.98	-1000000	-1000000	-1000000	-1000000	
13.78	0.1267	131.81	1.158	360.00	-1000000	-1000000	-1000000	-1000000	
13.80	0.1267	131.85	1.158	359.89	-1000000	-1000000	-1000000	-1000000	
13.82	0.1267	131.90	1.158	360.01	-1000000	-1000000	-1000000	-1000000	
13.84	0.1267	131.80	1.157	360.18	-1000000	-1000000	-1000000	-1000000	
13.86	0.1267	131.72	1.157	360.00	-1000000	-1000000	-1000000	-1000000	
13.88	0.1267	131.74	1.156	359.85	-1000000	-1000000	-1000000	-1000000	
13.90	0.1267	131.77	1.155	359.82	-1000000	-1000000	-1000000	-1000000	
13.92	0.1267	131.27	1.155	359.88	-1000000	-1000000	-1000000	-1000000	
13.94	0.1267	131.11	1.155	359.98	-1000000	-1000000	-1000000	-1000000	
13.96	0.1267	130.80	1.156	359.91	-1000000	-1000000	-1000000	-1000000	
13.98	0.1266	130.98	1.157	359.94	-1000000	-1000000	-1000000	-1000000	
14.00	0.1266	131.47	1.157	359.90	-1000000	-1000000	-1000000	-1000000	
14.02	0.1266	131.81	1.157	359.76	-1000000	-1000000	-1000000	-1000000	
14.04	0.1266	131.80	1.156	359.88	-1000000	-1000000	-1000000	-1000000	
14.06	0.1266	131.77	1.155	359.82	-1000000	-1000000	-1000000	-1000000	
14.08	0.1266	131.74	1.155	359.68	-1000000	-1000000	-1000000	-1000000	
14.10	0.1265	131.77	1.155	359.48	-1000000	-1000000	-1000000	-1000000	
14.12	0.1265	131.89	1.156	359.39	-1000000	-1000000	-1000000	-1000000	
14.14	0.1264	131.87	1.157	359.31	-1000000	-1000000	-1000000	-1000000	
14.16	0.1264	131.72	1.156	359.37	-1000000	-1000000	-1000000	-1000000	
14.18	0.1264	131.12	1.156	359.39	-1000000	-1000000	-1000000	-1000000	
14.20	0.1265	130.74	1.155	359.45	-1000000	-1000000	-1000000	-1000000	
14.22	0.1264	130.63	1.155	359.62	-1000000	-1000000	-1000000	-1000000	
14.24	0.1264	130.38	1.155	359.62	-1000000	-1000000	-1000000	-1000000	
14.26	0.1264	130.15	1.155	359.47	-1000000	-1000000	-1000000	-1000000	
14.28	0.1264	130.21	1.156	359.36	-1000000	-1000000	-1000000	-1000000	
14.30	0.1264	129.97	1.156	359.26	-1000000	-1000000	-1000000	-1000000	
14.32	0.1263	129.15	1.156	359.38	-1000000	-1000000	-1000000	-1000000	
14.34	0.1263	128.05	1.155	359.48	-1000000	-1000000	-1000000	-1000000	
14.36	0.1264	127.03	1.154	359.58	-1000000	-1000000	-1000000	-1000000	
14.38	0.1264	125.84	1.155	359.57	-1000000	-1000000	-1000000	-1000000	
14.40	0.1264	124.60	1.156	359.72	-1000000	-1000000	-1000000	-1000000	
14.42	0.1264	123.30	1.156	359.95	-1000000	-1000000	-1000000	-1000000	
14.44	0.1264	121.17	1.156	359.90	-1000000	-1000000	-1000000	-1000000	
14.46	0.1264	118.77	1.155	359.65	-1000000	-1000000	-1000000	-1000000	
14.48	0.1264	115.99	1.154	359.72	-1000000	-1000000	-1000000	-1000000	
14.50	0.1264	112.22	1.155	359.97	-1000000	-1000000	-1000000	-1000000	
14.52	0.1264	108.29	1.155	360.06	-1000000	-1000000	-1000000	-1000000	
14.54	0.1264	104.63	1.156	360.03	-1000000	-1000000	-1000000	-1000000	
14.56	0.1264	101.44	1.157	359.83	-1000000	-1000000	-1000000	-1000000	
14.58	0.1264	98.96	1.157	359.89	-1000000	-1000000	-1000000	-1000000	
14.60	0.1265	97.05	1.156	360.10	-1000000	-1000000	-1000000	-1000000	
14.62	0.1264	95.52	1.156	360.30	-1000000	-1000000	-1000000	-1000000	
14.64	0.1264	94.90	1.156	360.41	-1000000	-1000000	-1000000	-1000000	
14.66	0.1264	95.62	1.156	360.32	-1000000	-1000000	-1000000	-1000000	
14.68	0.1265	96.98	1.157	360.10	-1000000	-1000000	-1000000	-1000000	
14.70	0.1266	98.62	1.158	360.19	-1000000	-1000000	-1000000	-1000000	
14.72	0.1266	100.69	1.158	360.36	-1000000	-1000000	-1000000	-1000000	
14.74	0.1266	103.39	1.159	360.39	-1000000	-1000000	-1000000	-1000000	
14.76	0.1265	106.09	1.159	360.23	-1000000	-1000000	-1000000	-1000000	
14.78	0.1265	108.93	1.159	360.19	-1000000	-1000000	-1000000	-1000000	
14.80	0.1265	112.00	1.159	360.20	-1000000	-1000000	-1000000	-1000000	
14.82	0.1265	114.70	1.159	360.16	-1000000	-1000000	-1000000	-1000000	
14.84	0.1265	117.00	1.159	360.17	-1000000	-1000000	-1000000	-1000000	
14.86	0.1265	119.21	1.159	360.19	-1000000	-1000000	-1000000	-1000000	
14.88	0.1265	121.42	1.159	360.02	-1000000	-1000000	-1000000	-1000000	
14.90	0.1265	123.66	1.159	360.02	-1000000	-1000000	-1000000	-1000000	
14.92	0.1266	125.72	1.159	360.13	-1000000	-1000000	-1000000	-1000000	
14.94	0.1266	127.36	1.159	360.24	-1000000	-1000000	-1000000	-1000000	
14.96	0.1265	128.58	1.159	360.22	-1000000	-1000000	-1000000	-1000000	
14.98	0.1264	129.65	1.159	360.10	-1000000	-1000000	-1000000	-1000000	
15.00	0.1265	130.75	1.159	360.04	-1000000	-1000000	-1000000	-1000000	
15.02	0.1265	131.62	1.159	360.17	-1000000	-1000000	-1000000	-1000000	
15.04	0.1265	132.35	1.159	360.12	-1000000	-1000000	-1000000	-1000000	
15.06	0.1265	133.20	1.159	359.99	-1000000	-1000000	-1000000	-1000000	
15.08	0.1264	134.03	1.158	359.89	-1000000	-1000000	-1000000	-1000000	
15.10	0.1264	134.75	1.156	359.74	-1000000	-1000000	-1000000	-1000000	
15.12	0.1264	135.20	1.156	359.83	-1000000	-1000000	-1000000	-1000000	
15.14	0.1264	135.87	1.156	359.93	-1000000	-1000000	-1000000	-1000000	
15.16	0.1264	136.51	1.156	359.94	-1000000	-1000000	-1000000	-1000000	
15.18	0.1263	136.82	1.155	359.91	-1000000	-1000000	-1000000	-1000000	
15.20	0.1263	137.16	1.154	359.78	-1000000	-1000000	-1000000	-1000000	
15.22	0.1264	138.05	1.154	359.73	-1000000	-1000000	-1000000	-1000000	
15.24	0.1264	138.64	1.155	359.69	-1000000	-1000000	-1000000	-1000000	
15.26	0.1264	138.90	1.155	359.63	-1000000	-1000000	-1000000	-1000000	
15.28	0.1264	139.46	1.155	359.45	-1000000	-1000000	-1000000	-1000000	
15.30	0.1263	140.16	1.154	359.37	-1000000	-1000000	-1000000	-1000000	
15.32	0.1263	141.19	1.154	359.52	-1000000	-1000000	-1000000	-1000000	
15.34	0.1264	143.04	1.155	359.69	-1000000	-1000000	-1000000	-1000000	
15.36	0.1265	146.48	1.156	359.59	-1000000	-1000000	-1000000	-1000000	
15.38	0.1265	151.89	1.157	359.62	-1000000	-1000000	-1000000	-1000000	
15.40	0.1266	160.02	1.157	359.58	-1000000	-1000000	-1000000	-1000000	
15.42	0.1267	170.68	1.158	359.42	-1000000	-1000000	-1000000	-1000000	
15.44	0.1268	184.33	1.159	359.22	-1000000	-1000000	-1000000	-1000000	
15.46	0.1269	201.25	1.160	359.05	-1000000	-1000000	-1000000	-1000000	
15.48	0.1270	221.48	1.161	359.10	-1000000	-1000000	-1000000	-1000000	
15.50	0.1272	244.51	1.162	359.28	-1000000	-1000000	-1000000	-1000000	
15.52	0.1275	270.65	1.162	359.32	-1000000	-1000000	-1000000	-1000000	
15.54	0.1277	300.74	1.164	359.26	-1000000	-1000000	-1000000	-1000000	
15.56	0.1280	334.31	1.166	359.10	-1000000	-1000000	-1000000	-1000000	
15.58	0.1282	371.29	1.168	359.11	-1000000	-1000000	-1000000	-1000000	
15.60	0.1285	412.00	1.169	359.34	-1000000	-1000000	-1000000	-1000000	
15.62	0.1288	456.28	1.171	359.39	-1000000	-1000000	-1000000	-1000000	
15.64	0.1291	504.11	1.173	359.46	-1000000	-1000000	-1000000	-1000000	
15.66	0.1295	554.50	1.176	359.53	-1000000	-1000000	-1000000	-1000000	
15.68	0.1299	607.50	1.178	359.68	-1000000	-1000000	-1000000	-1000000	
15.70	0.1303	662.01	1.180	359.87	-1000000	-1000000	-1000000	-1000000	
15.72	0.1307	717.67	1.183	359.93	-1000000	-1000000	-1000000	-1000000	
15.74	0.1311	774.68	1.186	359.94	-1000000	-1000000	-1000000	-1000000	
15.76	0.1315	833.94	1.189	360.10	-1000000	-1000000	-1000000	-1000000	
15.78	0.1319	895.97	1.192	360.35	-1000000	-1000000	-1000000	-1000000	
15.80	0.1323	960.92	1.195	360.54	-1000000	-1000000	-1000000	-1000000	
15.82	0.1328	1029.3	1.198	360.61	-1000000	-1000000	-1000000	-1000000	
15.84	0.1332	1100.8	1.201	360.58	-1000000	-1000000	-1000000	-1000000	
15.86	0.1337	1175.4	1.204	360.61	-1000000	-1000000	-1000000	-1000000	
15.88	0.1343	1253.5	1.208	360.60	-1000000	-1000000	-1000000	-1000000	
15.90	0.1348	1334.6	1.211	360.56	-1000000	-1000000	-1000000	-1000000	
15.92	0.1354	1418.4	1.215	360.51	-1000000	-1000000	-1000000	-1000000	
15.94	0.1360	1504.8	1.219	360.58	-1000000	-1000000	-1000000	-1000000	
15.96	0.1366	1593.2	1.223	360.57	-1000000	-1000000	-1000000	-1000000	
15.98	0.1372	1683.9	1.227	360.52	-1000000	-1000000	-1000000	-1000000	
16.00	0.1379	1776.6	1.232	360.48	-1000000	-1000000	-1000000	-1000000	
16.02	0.1386	1871.4	1.236	360.26	-1000000	-1000000	-1000000	-1000000	
16.04	0.1393	1968.0	1.240	360.22	-1000000	-1000000	-1000000	-1000000	
16.06	0.1400	2066.5	1.245	360.31	-1000000	-1000000	-1000000	-1000000	
16.08	0.1408	2167.4	1.250	360.28	-1000000	-1000000	-1000000	-1000000	
16.10	0.1416	2270.3	1.255	360.39	-1000000	-1000000	-1000000	-1000000	
16.12	0.1424	2374.7	1.260	360.45	-1000000	-1000000	-1000000	-1000000	
16.14	0.1433	2480.7	1.265	360.34	-1000000	-1000000	-1000000	-1000000	
16.16	0.1442	2588.0	1.270	360.27	-1000000	-1000000	-1000000	-1000000	
16.18	0.1451	2696.6	1.275	360.17	-1000000	-1000000	-1000000	-1000000	
16.20	0.1461	2806.7	1.281	359.98	-1000000	-1000000	-1000000	-1000000	
16.22	0.1472	2918.3	1.286	359.93	-1000000	-1000000	-1000000	-1000000	
16.24	0.1483	3030.8	1.292	359.86	-1000000	-1000000	-1000000	-1000000	
16.26	0.1494	3143.6	1.298	359.76	-1000000	-1000000	-1000000	-1000000	
16.28	0.1507	3256.1	1.304	359.85	-1000000	-1000000	-1000000	-1000000	
16.30	0.1520	3368.4	1.309	359.79	-1000000	-1000000	-1000000	-1000000	
16.32	0.1535	3479.9	1.316	359.70	-1000000	-1000000	-1000000	-1000000	
16.34	0.1552	3589.8	1.322	359.60	-1000000	-1000000	-1000000	-1000000	
16.36	0.1569	3697.1	1.328	359.52	-1000000	-1000000	-1000000	-1000000	
16.38	0.1590	3800.7	1.335	359.55	-1000000	-1000000	-1000000	-1000000	
16.40	0.1613	3899.7	1.342	359.52	-1000000	-1000000	-1000000	-1000000	
16.42	0.1639	3992.9	1.348	359.50	-1000000	-1000000	-1000000	-1000000	
16.44	0.1667	4079.2	1.355	359.56	-1000000	-1000000	-1000000	-1000000	
16.46	0.1698	4158.0	1.362	359.62	-1000000	-1000000	-1000000	-1000000	
16.48	0.1732	4229.3	1.369	359.71	-1000000	-1000000	-1000000	-1000000	
16.50	0.1769	4293.1	1.377	359.58	-1000000	-1000000	-1000000	-1000000	
16.52	0.1808	4350.2	1.384	359.51	-1000000	-1000000	-1000000	-1000000	
16.54	0.1848	4400.9	1.391	359.65	-1000000	-1000000	-1000000	-1000000	
16.56	0.1890	4446.1	1.399	359.54	-1000000	-1000000	-1000000	-1000000	
16.58	0.1933	4487.1	1.407	359.34	-1000000	-1000000	-1000000	-1000000	
16.60	0.1978	4524.4	1.415	359.32	-1000000	-1000000	-1000000	-1000000	
16.62	0.2024	4558.7	1.423	359.50	-1000000	-1000000	-1000000	-1000000	
16.64	0.2070	4590.7	1.431	359.53	-1000000	-1000000	-1000000	-1000000	
16.66	0.2117	4620.6	1.439	359.49	-1000000	-1000000	-1000000	-1000000	
16.68	0.2167	4649.0	1.447	359.58	-1000000	-1000000	-1000000	-1000000	
16.70	0.2217	4675.8	1.456	359.77	-1000000	-1000000	-1000000	-1000000	
16.72	0.2267	4701.7	1.464	359.90	-1000000	-1000000	-1000000	-1000000	
16.74	0.2318	4727.3	1.473	359.89	-1000000	-1000000	-1000000	-1000000	
16.76	0.2370	4751.9	1.482	359.80	-1000000	-1000000	-1000000	-1000000	
16.78	0.2422	4775.3	1.491	359.88	-1000000	-1000000	-1000000	-1000000	
16.80	0.2475	4798.0	1.500	359.98	-1000000	-1000000	-1000000	-1000000	
16.82	0.2530	4820.3	1.509	360.07	-1000000	-1000000	-1000000	-1000000	
16.84	0.2586	4842.1	1.518	360.18	-1000000	-1000000	-1000000	-1000000	
16.86	0.2643	4863.8	1.528	360.13	-1000000	-1000000	-1000000	-1000000	
16.88	0.2700	4885.6	1.537	360.25	-1000000	-1000000	-1000000	-1000000	
16.90	0.2757	4907.2	1.547	360.34	-1000000	-1000000	-1000000	-1000000	
16.92	0.2815	4928.5	1.556	360.43	-1000000	-1000000	-1000000	-1000000	
16.94	0.2874	4949.4	1.566	360.35	-1000000	-1000000	-1000000	-1000000	
16.96	0.2933	4970.4	1.576	360.13	-1000000	-1000000	-1000000	-1000000	
16.98	0.2994	4991.4	1.586	360.01	-1000000	-1000000	-1000000	-1000000	
17.00	0.3055	5011.9	1.597	360.16	-1000000	-1000000	-1000000	-1000000	
17.02	0.3117	5032.2	1.607	360.26	-1000000	-1000000	-1000000	-1000000	
17.04	0.3179	5052.3	1.618	360.26	-1000000	-1000000	-1000000	-1000000	
17.06	0.3242	5071.8	1.628	360.25	-1000000	-1000000	-1000000	-1000000	
17.08	0.3305	5091.4	1.639	360.29	-1000000	-1000000	-1000000	-1000000	
17.10	0.3369	5111.1	1.650	360.23	-1000000	-1000000	-1000000	-1000000	
17.12	0.3435	5130.9	1.661	360.12	-1000000	-1000000	-1000000	-1000000	
17.14	0.3500	5150.6	1.672	360.09	-1000000	-1000000	-1000000	-1000000	
17.16	0.3565	5170.1	1.683	360.06	-1000000	-1000000	-1000000	-1000000	
17.18	0.3631	5189.2	1.694	359.98	-1000000	-1000000	-1000000	-1000000	
17.20	0.3699	5208.5	1.706	359.96	-1000000	-1000000	-1000000	-1000000	
17.22	0.3767	5227.7	1.717	359.99	-1000000	-1000000	-1000000	-1000000	
17.24	0.3836	5246.9	1.729	360.02	-1000000	-1000000	-1000000	-1000000	
17.26	0.3906	5266.0	1.741	359.83	-1000000	-1000000	-1000000	-1000000	
17.28	0.3976	5284.9	1.753	359.61	-1000000	-1000000	-1000000	-1000000	
17.30	0.4046	5303.7	1.765	359.68	-1000000	-1000000	-1000000	-1000000	
17.32	0.4117	5322.2	1.777	359.83	-1000000	-1000000	-1000000	-1000000	
17.34	0.4190	5340.3	1.789	359.90	-1000000	-1000000	-1000000	-1000000	
17.36	0.4263	5358.6	1.802	359.82	-1000000	-1000000	-1000000	-1000000	
17.38	0.4336	5377.1	1.814	359.72	-1000000	-1000000	-1000000	-1000000	
17.40	0.4410	5395.6	1.827	359.60	-1000000	-1000000	-1000000	-1000000	
17.42	0.4484	5414.1	1.839	359.44	-1000000	-1000000	-1000000	-1000000	
17.44	0.4559	5432.8	1.852	359.52	-1000000	-1000000	-1000000	-1000000	
17.46	0.4635	5451.3	1.865	359.73	-1000000	-1000000	-1000000	-1000000	
17.48	0.4712	5469.2	1.878	359.72	-1000000	-1000000	-1000000	-1000000	
17.50	0.4789	5486.6	1.892	359.55	-1000000	-1000000	-1000000	-1000000	
17.52	0.4868	5504.3	1.905	359.59	-1000000	-1000000	-1000000	-1000000	
17.54	0.4947	5522.2	1.919	359.65	-1000000	-1000000	-1000000	-1000000	
17.56	0.5026	5539.9	1.932	359.42	-1000000	-1000000	-1000000	-1000000	
17.58	0.5106	5557.3	1.946	359.33	-1000000	-1000000	-1000000	-1000000	
17.60	0.5186	5574.8	1.960	359.50	-1000000	-1000000	-1000000	-1000000	
17.62	0.5267	5592.6	1.974	359.55	-1000000	-1000000	-1000000	-1000000	
17.64	0.5351	5610.5	1.988	359.44	-1000000	-1000000	-1000000	-1000000	
17.66	0.5435	5628.1	2.002	359.34	-1000000	-1000000	-1000000	-1000000	
17.68	0.5518	5645.8	2.016	359.20	-1000000	-1000000	-1000000	-1000000	
17.70	0.5602	5663.2	2.031	359.12	-1000000	-1000000	-1000000	-1000000	
17.72	0.5687	5680.0	2.045	359.00	-1000000	-1000000	-1000000	-1000000	
17.74	0.5773	5696.6	2.060	359.11	-1000000	-1000000	-1000000	-1000000	
17.76	0.5859	5713.3	2.075	359.46	-1000000	-1000000	-1000000	-1000000	
17.78	0.5945	5729.4	2.090	359.46	-1000000	-1000000	-1000000	-1000000	
17.80	0.6033	5745.4	2.105	359.42	-1000000	-1000000	-1000000	-1000000	
17.82	0.6122	5761.6	2.120	359.56	-1000000	-1000000	-1000000	-1000000	
17.84	0.6213	5777.5	2.135	359.86	-1000000	-1000000	-1000000	-1000000	
17.86	0.6305	5792.9	2.151	360.10	-1000000	-1000000	-1000000	-1000000	
17.88	0.6396	5807.8	2.166	360.14	-1000000	-1000000	-1000000	-1000000	
17.90	0.6488	5822.1	2.182	360.15	-1000000	-1000000	-1000000	-1000000	
17.92	0.6580	5836.2	2.197	360.37	-1000000	-1000000	-1000000	-1000000	
17.94	0.6674	5850.5	2.213	360.60	-1000000	-1000000	-1000000	-1000000	
17.96	0.6768	5864.9	2.230	360.71	-1000000	-1000000	-1000000	-1000000	
17.98	0.6864	5879.2	2.246	360.55	-1000000	-1000000	-1000000	-1000000	
18.00	0.6961	5893.8	2.262	360.64	-1000000	-1000000	-1000000	-1000000	
18.02	0.7060	5908.6	2.278	360.73	-1000000	-1000000	-1000000	-1000000	
18.04	0.7160	5923.7	2.295	360.78	-1000000	-1000000	-1000000	-1000000	
18.06	0.7260	5939.3	2.311	360.90	-1000000	-1000000	-1000000	-1000000	
18.08	0.7361	5954.6	2.328	361.13	-1000000	-1000000	-1000000	-1000000	
18.10	0.7461	5969.8	2.345	361.01	-1000000	-1000000	-1000000	-1000000	
18.12	0.7563	5985.1	2.362	360.78	-1000000	-1000000	-1000000	-1000000	
18.14	0.7666	6000.5	2.379	360.80	-1000000	-1000000	-1000000	-1000000	
18.16	0.7770	6015.6	2.396	361.05	-1000000	-1000000	-1000000	-1000000	
18.18	0.7875	6030.6	2.413	361.17	-1000000	-1000000	-1000000	-1000000	
18.20	0.7979	6045.6	2.431	361.07	-1000000	-1000000	-1000000	-1000000	
18.22	0.8085	6060.8	2.448	360.93	-1000000	-1000000	-1000000	-1000000	
18.24	0.8191	6075.8	2.466	360.84	-1000000	-1000000	-1000000	-1000000	
18.26	0.8298	6090.5	2.484	360.87	-1000000	-1000000	-1000000	-1000000	
18.28	0.8406	6104.7	2.502	360.89	-1000000	-1000000	-1000000	-1000000	
18.30	0.8516	6118.9	2.520	360.83	-1000000	-1000000	-1000000	-1000000	
18.32	0.8627	6133.3	2.538	360.78	-1000000	-1000000	-1000000	-1000000	
18.34	0.8738	6147.6	2.556	360.91	-1000000	-1000000	-1000000	-1000000	
18.36	0.8851	6161.7	2.574	361.03	-1000000	-1000000	-1000000	-1000000	
18.38	0.8964	6176.0	2.593	361.02	-1000000	-1000000	-1000000	-1000000	
18.40	0.9077	6190.0	2.612	360.81	-1000000	-1000000	-1000000	-1000000	
18.42	0.9192	6203.6	2.630	360.80	-1000000	-1000000	-1000000	-1000000	
18.44	0.9307	6217.6	2.649	360.96	-1000000	-1000000	-1000000	-1000000	
18.46	0.9423	6231.6	2.668	361.19	-1000000	-1000000	-1000000	-1000000	
18.48	0.9541	6245.3	2.687	361.40	-1000000	-1000000	-1000000	-1000000	
18.50	0.9660	6258.8	2.706	361.18	-1000000	-1000000	-1000000	-1000000	
18.52	0.9779	6272.4	2.726	360.90	-1000000	-1000000	-1000000	-1000000	
18.54	0.9899	6285.8	2.745	360.94	-1000000	-1000000	-1000000	-1000000	
18.56	1.002	6299.1	2.765	360.96	-1000000	-1000000	-1000000	-1000000	
18.58	1.014	6312.5	2.785	361.11	-1000000	-1000000	-1000000	-1000000	
18.60	1.027	6326.0	2.805	361.12	-1000000	-1000000	-1000000	-1000000	
18.62	1.039	6339.4	2.825	361.05	-1000000	-1000000	-1000000	-1000000	
18.64	1.051	6352.8	2.845	360.99	-1000000	-1000000	-1000000	-1000000	
18.66	1.064	6365.6	2.865	361.12	-1000000	-1000000	-1000000	-1000000	
18.68	1.077	6377.9	2.885	361.06	-1000000	-1000000	-1000000	-1000000	
18.70	1.090	6390.3	2.906	360.89	-1000000	-1000000	-1000000	-1000000	
18.72	1.103	6403.0	2.926	360.81	-1000000	-1000000	-1000000	-1000000	
18.74	1.116	6415.8	2.947	360.93	-1000000	-1000000	-1000000	-1000000	
18.76	1.129	6428.6	2.968	361.11	-1000000	-1000000	-1000000	-1000000	
18.78	1.142	6441.6	2.989	361.12	-1000000	-1000000	-1000000	-1000000	
18.80	1.155	6454.4	3.009	361.08	-1000000	-1000000	-1000000	-1000000	
18.82	1.169	6466.5	3.031	361.08	-1000000	-1000000	-1000000	-1000000	
18.84	1.182	6478.2	3.052	360.99	-1000000	-1000000	-1000000	-1000000	
18.86	1.196	6489.6	3.074	360.88	-1000000	-1000000	-1000000	-1000000	
18.88	1.210	6500.9	3.095	360.97	-1000000	-1000000	-1000000	-1000000	
18.90	1.223	6512.7	3.116	361.11	-1000000	-1000000	-1000000	-1000000	
18.92	1.237	6524.7	3.138	361.10	-1000000	-1000000	-1000000	-1000000	
18.94	1.252	6536.4	3.160	361.08	-1000000	-1000000	-1000000	-1000000	
18.96	1.266	6547.7	3.182	361.07	-1000000	-1000000	-1000000	-1000000	
18.98	1.280	6558.8	3.204	361.09	-1000000	-1000000	-1000000	-1000000	
19.00	1.294	6570.0	3.226	361.09	-1000000	-1000000	-1000000	-1000000	
19.02	1.309	6581.0	3.249	361.03	-1000000	-1000000	-1000000	-1000000	
19.04	1.323	6591.8	3.271	361.08	-1000000	-1000000	-1000000	-1000000	
19.06	1.338	6602.6	3.294	361.11	-1000000	-1000000	-1000000	-1000000	
19.08	1.353	6613.2	3.317	361.18	-1000000	-1000000	-1000000	-1000000	
19.10	1.368	6624.1	3.339	361.22	-1000000	-1000000	-1000000	-1000000	
19.12	1.383	6634.7	3.363	361.25	-1000000	-1000000	-1000000	-1000000	
19.14	1.398	6645.6	3.386	361.16	-1000000	-1000000	-1000000	-1000000	
19.16	1.413	6656.2	3.409	361.06	-1000000	-1000000	-1000000	-1000000	
19.18	1.429	6666.5	3.432	361.08	-1000000	-1000000	-1000000	-1000000	
19.20	1.444	6676.7	3.456	361.04	-1000000	-1000000	-1000000	-1000000	
19.22	1.460	6686.6	3.479	361.03	-1000000	-1000000	-1000000	-1000000	
19.24	1.475	6696.3	3.503	361.11	-1000000	-1000000	-1000000	-1000000	
19.26	1.491	6705.7	3.527	361.05	-1000000	-1000000	-1000000	-1000000	
19.28	1.507	6715.3	3.551	361.08	-1000000	-1000000	-1000000	-1000000	
19.30	1.523	6725.1	3.575	361.20	-1000000	-1000000	-1000000	-1000000	
19.32	1.540	6734.8	3.599	361.28	-1000000	-1000000	-1000000	-1000000	
19.34	1.556	6744.2	3.623	361.35	-1000000	-1000000	-1000000	-1000000	
19.36	1.572	6753.6	3.648	361.36	-1000000	-1000000	-1000000	-1000000	
19.38	1.589	6762.6	3.672	361.15	-1000000	-1000000	-1000000	-1000000	
19.40	1.606	6771.6	3.697	361.16	-1000000	-1000000	-1000000	-1000000	
19.42	1.622	6780.5	3.721	361.18	-1000000	-1000000	-1000000	-1000000	
19.44	1.639	6789.4	3.746	361.23	-1000000	-1000000	-1000000	-1000000	
19.46	1.656	6798.3	3.771	361.27	-1000000	-1000000	-1000000	-1000000	
19.48	1.674	6806.9	3.796	361.26	-1000000	-1000000	-1000000	-1000000	
19.50	1.691	6815.5	3.822	361.34	-1000000	-1000000	-1000000	-1000000	
19.52	1.709	6824.3	3.847	361.36	-1000000	-1000000	-1000000	-1000000	
19.54	1.726	6833.1	3.873	361.38	-1000000	-1000000	-1000000	-1000000	
19.56	1.744	6841.6	3.898	361.48	-1000000	-1000000	-1000000	-1000000	
19.58	1.762	6849.8	3.924	361.32	-1000000	-1000000	-1000000	-1000000	
19.60	1.780	6857.7	3.950	361.22	-1000000	-1000000	-1000000	-1000000	
19.62	1.798	6865.4	3.976	361.31	-1000000	-1000000	-1000000	-1000000	
19.64	1.816	6872.8	4.002	361.49	-1000000	-1000000	-1000000	-1000000	
19.66	1.835	6880.3	4.028	361.68	-1000000	-1000000	-1000000	-1000000	
19.68	1.853	6887.6	4.054	361.86	-1000000	-1000000	-1000000	-1000000	
19.70	1.872	6894.7	4.081	361.78	-1000000	-1000000	-1000000	-1000000	
19.72	1.891	6902.4	4.107	361.38	-1000000	-1000000	-1000000	-1000000	
19.74	1.910	6909.9	4.134	359.77	-1000000	-1000000	-1000000	-1000000	
19.76	1.929	6916.8	4.161	358.14	-1000000	-1000000	-1000000	-1000000	
19.78	1.948	6923.4	4.188	357.54	-1000000	-1000000	-1000000	-1000000	
19.80	1.968	6930.1	4.214	357.62	-1000000	-1000000	-1000000	-1000000	
19.82	1.987	6936.8	4.242	357.81	-1000000	-1000000	-1000000	-1000000	
19.84	2.007	6943.7	4.269	357.87	-1000000	-1000000	-1000000	-1000000	
19.86	2.027	6950.3	4.296	357.94	-1000000	-1000000	-1000000	-1000000	
19.88	2.047	6956.9	4.324	357.96	-1000000	-1000000	-1000000	-1000000	
19.90	2.067	6962.9	4.352	358.00	-1000000	-1000000	-1000000	-1000000	
19.92	2.087	6968.5	4.379	358.04	-1000000	-1000000	-1000000	-1000000	
19.94	2.107	6973.8	4.407	358.14	-1000000	-1000000	-1000000	-1000000	
19.96	2.128	6978.9	4.435	358.15	-1000000	-1000000	-1000000	-1000000	
19.98	2.149	6983.7	4.463	358.21	-1000000	-1000000	-1000000	-1000000	
20.00	2.169	6988.1	4.492	358.29	-1000000	-1000000	-1000000	-1000000	
20.02	2.190	6992.1	4.520	358.41	-1000000	-1000000	-1000000	-1000000	
20.04	2.211	6996.1	4.549	358.45	-1000000	-1000000	-1000000	-1000000	
20.06	2.233	6999.6	4.577	358.66	-1000000	-1000000	-1000000	-1000000	
20.08	2.254	7001.6	4.606	359.14	-1000000	-1000000	-1000000	-1000000	
20.10	2.275	7001.7	4.635	359.88	-1000000	-1000000	-1000000	-1000000	
20.12	2.297	6998.6	4.664	360.75	-1000000	-1000000	-1000000	-1000000	
20.14	2.319	6991.7	4.693	361.64	-1000000	-1000000	-1000000	-1000000	
20.16	2.341	6982.8	4.722	362.49	-1000000	-1000000	-1000000	-1000000	
20.18	2.363	6973.5	4.751	363.26	-1000000	-1000000	-1000000	-1000000	
20.20	2.385	6965.1	4.780	363.97	-1000000	-1000000	-1000000	-1000000	
20.22	2.408	6959.4	4.810	364.60	-1000000	-1000000	-1000000	-1000000	
20.24	2.431	6957.8	4.840	364.90	-1000000	-1000000	-1000000	-1000000	
20.26	2.454	6958.9	4.870	365.17	-1000000	-1000000	-1000000	-1000000	
20.28	2.478	6961.3	4.900	365.25	-1000000	-1000000	-1000000	-1000000	
20.30	2.502	6963.8	4.930	365.22	-1000000	-1000000	-1000000	-1000000	
20.32	2.525	6965.9	4.960	365.28	-1000000	-1000000	-1000000	-1000000	
20.34	2.550	6968.0	4.990	365.44	-1000000	-1000000	-1000000	-1000000	
20.36	2.574	6970.2	5.020	365.47	-1000000	-1000000	-1000000	-1000000	
20.38	2.598	6972.1	5.051	365.40	-1000000	-1000000	-1000000	-1000000	
20.40	2.623	6973.9	5.081	365.34	-1000000	-1000000	-1000000	-1000000	
20.42	2.648	6975.8	5.112	365.36	-1000000	-1000000	-1000000	-1000000	
20.44	2.673	6977.5	5.143	365.38	-1000000	-1000000	-1000000	-1000000	
20.46	2.698	6979.1	5.174	365.55	-1000000	-1000000	-1000000	-1000000	
20.48	2.724	6980.5	5.205	365.76	-1000000	-1000000	-1000000	-1000000	
20.50	2.749	6981.8	5.236	365.88	-1000000	-1000000	-1000000	-1000000	
20.52	2.775	6983.4	5.268	365.88	-1000000	-1000000	-1000000	-1000000	
20.54	2.801	6984.8	5.299	365.93	-1000000	-1000000	-1000000	-1000000	
20.56	2.828	6985.6	5.331	366.08	-1000000	-1000000	-1000000	-1000000	
20.58	2.854	6986.6	5.362	366.30	-1000000	-1000000	-1000000	-1000000	
20.60	2.881	6987.9	5.394	366.50	-1000000	-1000000	-1000000	-1000000	
20.62	2.907	6988.7	5.426	366.59	-1000000	-1000000	-1000000	-1000000	
20.64	2.934	6989.4	5.458	366.58	-1000000	-1000000	-1000000	-1000000	
20.66	2.961	6990.2	5.490	366.49	-1000000	-1000000	-1000000	-1000000	
20.68	2.989	6990.8	5.523	366.46	-1000000	-1000000	-1000000	-1000000	
20.70	3.016	6991.6	5.555	366.52	-1000000	-1000000	-1000000	-1000000	
20.72	3.044	6992.1	5.588	366.52	-1000000	-1000000	-1000000	-1000000	
20.74	3.072	6992.2	5.621	366.55	-1000000	-1000000	-1000000	-1000000	
20.76	3.100	6992.2	5.653	366.74	-1000000	-1000000	-1000000	-1000000	
20.78	3.128	6992.3	5.686	366.85	-1000000	-1000000	-1000000	-1000000	
20.80	3.157	6992.3	5.719	366.96	-1000000	-1000000	-1000000	-1000000	
20.82	3.186	6991.7	5.752	367.06	-1000000	-1000000	-1000000	-1000000	
20.84	3.215	6990.9	5.785	367.22	-1000000	-1000000	-1000000	-1000000	
20.86	3.244	6990.1	5.819	367.32	-1000000	-1000000	-1000000	-1000000	
20.88	3.273	6989.3	5.852	367.43	-1000000	-1000000	-1000000	-1000000	
20.90	3.303	6988.6	5.886	367.55	-1000000	-1000000	-1000000	-1000000	
20.92	3.333	6987.4	5.920	367.78	-1000000	-1000000	-1000000	-1000000	
20.94	3.363	6985.9	5.954	367.95	-1000000	-1000000	-1000000	-1000000	
20.96	3.393	6984.4	5.988	368.17	-1000000	-1000000	-1000000	-1000000	
20.98	3.423	6983.0	6.022	368.22	-1000000	-1000000	-1000000	-1000000	
21.00	3.454	6981.4	6.056	368.10	-1000000	-1000000	-1000000	-1000000	
21.02	3.484	6979.8	6.090	368.05	-1000000	-1000000	-1000000	-1000000	
21.04	3.515	6977.9	6.125	368.12	-1000000	-1000000	-1000000	-1000000	
21.06	3.547	6975.8	6.160	368.29	-1000000	-1000000	-1000000	-1000000	
21.08	3.578	6973.9	6.194	368.42	-1000000	-1000000	-1000000	-1000000	
21.10	3.610	6971.6	6.229	368.63	-1000000	-1000000	-1000000	-1000000	
21.12	3.642	6969.3	6.264	368.84	-1000000	-1000000	-1000000	-1000000	
21.14	3.674	6966.7	6.299	368.91	-1000000	-1000000	-1000000	-1000000	
21.16	3.706	6963.6	6.334	369.10	-1000000	-1000000	-1000000	-1000000	
21.18	3.739	6960.3	6.370	369.34	-1000000	-1000000	-1000000	-1000000	
21.20	3.772	6956.9	6.405	369.42	-1000000	-1000000	-1000000	-1000000	
21.22	3.804	6952.9	6.441	369.44	-1000000	-1000000	-1000000	-1000000	
21.24	3.838	6948.9	6.476	369.61	-1000000	-1000000	-1000000	-1000000	
21.26	3.871	6944.5	6.512	369.90	-1000000	-1000000	-1000000	-1000000	
21.28	3.905	6939.6	6.548	370.07	-1000000	-1000000	-1000000	-1000000	
21.30	3.938	6934.7	6.584	370.10	-1000000	-1000000	-1000000	-1000000	
21.32	3.972	6929.6	6.620	370.18	-1000000	-1000000	-1000000	-1000000	
21.34	4.007	6924.5	6.657	370.18	-1000000	-1000000	-1000000	-1000000	
21.36	4.041	6919.3	6.693	370.35	-1000000	-1000000	-1000000	-1000000	
21.38	4.076	6913.8	6.729	370.59	-1000000	-1000000	-1000000	-1000000	
21.40	4.111	6907.9	6.766	370.72	-1000000	-1000000	-1000000	-1000000	
21.42	4.146	6901.6	6.803	370.96	-1000000	-1000000	-1000000	-1000000	
21.44	4.181	6894.8	6.840	371.07	-1000000	-1000000	-1000000	-1000000	
21.46	4.217	6888.0	6.877	371.18	-1000000	-1000000	-1000000	-1000000	
21.48	4.253	6881.2	6.914	371.40	-1000000	-1000000	-1000000	-1000000	
21.50	4.289	6873.9	6.951	371.78	-1000000	-1000000	-1000000	-1000000	
21.52	4.325	6865.9	6.988	372.07	-1000000	-1000000	-1000000	-1000000	
21.54	4.361	6857.5	7.026	372.27	-1000000	-1000000	-1000000	-1000000	
21.56	4.398	6848.9	7.064	372.39	-1000000	-1000000	-1000000	-1000000	
21.58	4.435	6839.5	7.101	372.56	-1000000	-1000000	-1000000	-1000000	
21.60	4.472	6829.5	7.139	372.83	-1000000	-1000000	-1000000	-1000000	
21.62	4.509	6819.3	7.177	373.03	-1000000	-1000000	-1000000	-1000000	
21.64	4.547	6809.1	7.215	373.28	-1000000	-1000000	-1000000	-1000000	
21.66	4.584	6798.4	7.253	373.36	-1000000	-1000000	-1000000	-1000000	
21.68	4.622	6787.3	7.292	373.27	-1000000	-1000000	-1000000	-1000000	
21.70	4.660	6775.9	7.330	373.39	-1000000	-1000000	-1000000	-1000000	
21.72	4.698	6763.7	7.369	373.64	-1000000	-1000000	-1000000	-1000000	
21.74	4.737	6750.7	7.407	373.95	-1000000	-1000000	-1000000	-1000000	
21.76	4.776	6737.1	7.446	374.30	-1000000	-1000000	-1000000	-1000000	
21.78	4.815	6722.9	7.485	374.50	-1000000	-1000000	-1000000	-1000000	
21.80	4.854	6708.3	7.524	374.74	-1000000	-1000000	-1000000	-1000000	
21.82	4.893	6693.4	7.563	375.07	-1000000	-1000000	-1000000	-1000000	
21.84	4.933	6678.0	7.602	375.48	-1000000	-1000000	-1000000	-1000000	
21.86	4.973	6661.9	7.642	375.84	-1000000	-1000000	-1000000	-1000000	
21.88	5.013	6644.7	7.681	376.03	-1000000	-1000000	-1000000	-1000000	
21.90	5.053	6626.6	7.721	376.26	-1000000	-1000000	-1000000	-1000000	
21.92	5.093	6607.9	7.761	376.49	-1000000	-1000000	-1000000	-1000000	
21.94	5.134	6589.0	7.800	376.77	-1000000	-1000000	-1000000	-1000000	
21.96	5.175	6569.1	7.840	377.00	-1000000	-1000000	-1000000	-1000000	
21.98	5.216	6547.9	7.881	377.21	-1000000	-1000000	-1000000	-1000000	
22.00	5.257	6526.1	7.921	377.46	-1000000	-1000000	-1000000	-1000000	
22.02	5.298	6503.5	7.961	377.73	-1000000	-1000000	-1000000	-1000000	
22.04	5.340	6480.0	8.002	378.04	-1000000	-1000000	-1000000	-1000000	
22.06	5.382	6455.3	8.042	378.43	-1000000	-1000000	-1000000	-1000000	
22.08	5.424	6429.6	8.083	378.63	-1000000	-1000000	-1000000	-1000000	
22.10	5.466	6402.7	8.124	378.96	-1000000	-1000000	-1000000	-1000000	
22.12	5.508	6374.7	8.165	379.38	-1000000	-1000000	-1000000	-1000000	
22.14	5.551	6345.6	8.206	379.77	-1000000	-1000000	-1000000	-1000000	
22.16	5.594	6314.9	8.247	380.07	-1000000	-1000000	-1000000	-1000000	
22.18	5.637	6283.0	8.288	380.39	-1000000	-1000000	-1000000	-1000000	
22.20	5.680	6250.2	8.330	380.76	-1000000	-1000000	-1000000	-1000000	
22.22	5.724	6215.9	8.371	381.23	-1000000	-1000000	-1000000	-1000000	
22.24	5.767	6180.1	8.413	381.61	-1000000	-1000000	-1000000	-1000000	
22.26	5.808	6142.3	8.455	381.88	-1000000	-1000000	-1000000	-1000000	
22.28	5.842	6100.3	8.497	382.17	-1000000	-1000000	-1000000	-1000000	
22.30	5.865	6050.9	8.538	382.07	-1000000	-1000000	-1000000	-1000000	
22.32	5.878	5989.9	8.577	381.93	-1000000	-1000000	-1000000	-1000000	
22.34	5.886	5915.6	8.609	381.99	-1000000	-1000000	-1000000	-1000000	
22.36	5.890	5832.4	8.630	382.10	-1000000	-1000000	-1000000	-1000000	
22.38	5.893	5746.4	8.640	381.92	-1000000	-1000000	-1000000	-1000000	
22.40	5.895	5664.1	8.645	381.61	-1000000	-1000000	-1000000	-1000000	
22.42	5.897	5591.4	8.647	381.47	-1000000	-1000000	-1000000	-1000000	
22.44	5.898	5532.1	8.648	381.38	-1000000	-1000000	-1000000	-1000000	
22.46	5.899	5484.3	8.649	381.31	-1000000	-1000000	-1000000	-1000000	
22.48	5.900	5444.6	8.649	381.09	-1000000	-1000000	-1000000	-1000000	
22.50	5.901	5411.1	8.649	380.90	-1000000	-1000000	-1000000	-1000000	
22.52	5.902	5382.9	8.649	380.87	-1000000	-1000000	-1000000	-1000000	
22.54	5.902	5359.0	8.649	380.89	-1000000	-1000000	-1000000	-1000000	
22.56	5.903	5338.4	8.649	380.72	-1000000	-1000000	-1000000	-1000000	
22.58	5.903	5320.4	8.649	380.48	-1000000	-1000000	-1000000	-1000000	
22.60	5.904	5304.7	8.649	380.30	-1000000	-1000000	-1000000	-1000000	
22.62	5.904	5290.5	8.649	380.14	-1000000	-1000000	-1000000	-1000000	
22.64	5.904	5277.5	8.650	379.96	-1000000	-1000000	-1000000	-1000000	
22.66	5.905	5265.9	8.650	379.75	-1000000	-1000000	-1000000	-1000000	
22.68	5.905	5255.5	8.649	379.60	-1000000	-1000000	-1000000	-1000000	
22.70	5.905	5245.9	8.650	379.48	-1000000	-1000000	-1000000	-1000000	
22.72	5.906	5236.7	8.650	379.33	-1000000	-1000000	-1000000	-1000000	
22.74	5.906	5228.0	8.649	379.27	-1000000	-1000000	-1000000	-1000000	
22.76	5.906	5220.2	8.649	379.24	-1000000	-1000000	-1000000	-1000000	
22.78	5.906	5213.0	8.649	379.11	-1000000	-1000000	-1000000	-1000000	
22.80	5.907	5206.1	8.649	378.97	-1000000	-1000000	-1000000	-1000000	
22.82	5.907	5199.8	8.649	378.85	-1000000	-1000000	-1000000	-1000000	
22.84	5.907	5194.0	8.649	378.81	-1000000	-1000000	-1000000	-1000000	
22.86	5.907	5188.3	8.650	378.73	-1000000	-1000000	-1000000	-1000000	
22.88	5.907	5183.0	8.650	378.52	-1000000	-1000000	-1000000	-1000000	
22.90	5.907	5178.2	8.650	378.36	-1000000	-1000000	-1000000	-1000000	
22.92	5.908	5173.6	8.649	378.24	-1000000	-1000000	-1000000	-1000000	
22.94	5.908	5169.5	8.649	378.13	-1000000	-1000000	-1000000	-1000000	
22.96	5.908	5165.5	8.649	378.07	-1000000	-1000000	-1000000	-1000000	
22.98	5.908	5161.3	8.649	377.93	-1000000	-1000000	-1000000	-1000000	
23.00	5.908	5157.4	8.649	377.62	-1000000	-1000000	-1000000	-1000000	
23.02	5.908	5154.0	8.649	377.49	-1000000	-1000000	-1000000	-1000000	
23.04	5.908	5150.8	8.649	377.60	-1000000	-1000000	-1000000	-1000000	
23.06	5.909	5147.6	8.649	377.54	-1000000	-1000000	-1000000	-1000000	
23.08	5.909	5144.2	8.649	377.32	-1000000	-1000000	-1000000	-1000000	
23.10	5.909	5140.7	8.649	377.23	-1000000	-1000000	-1000000	-1000000	
23.12	5.909	5137.1	8.648	377.13	-1000000	-1000000	-1000000	-1000000	
23.14	5.909	5134.1	8.648	376.93	-1000000	-1000000	-1000000	-1000000	
23.16	5.909	5131.7	8.648	376.76	-1000000	-1000000	-1000000	-1000000	
23.18	5.909	5129.0	8.648	376.67	-1000000	-1000000	-1000000	-1000000	
23.20	5.909	5125.7	8.648	376.59	-1000000	-1000000	-1000000	-1000000	
23.22	5.909	5122.3	8.648	376.52	-1000000	-1000000	-1000000	-1000000	
23.24	5.909	5118.8	8.648	376.46	-1000000	-1000000	-1000000	-1000000	
23.26	5.910	5115.5	8.647	376.25	-1000000	-1000000	-1000000	-1000000	
23.28	5.910	5112.4	8.647	376.02	-1000000	-1000000	-1000000	-1000000	
23.30	5.910	5109.9	8.647	375.87	-1000000	-1000000	-1000000	-1000000	
23.32	5.910	5107.0	8.647	375.84	-1000000	-1000000	-1000000	-1000000	
23.34	5.910	5103.8	8.647	375.85	-1000000	-1000000	-1000000	-1000000	
23.36	5.910	5100.5	8.647	375.76	-1000000	-1000000	-1000000	-1000000	
23.38	5.910	5097.1	8.647	375.68	-1000000	-1000000	-1000000	-1000000	
23.40	5.910	5093.8	8.646	375.65	-1000000	-1000000	-1000000	-1000000	
23.42	5.910	5090.5	8.646	375.57	-1000000	-1000000	-1000000	-1000000	
23.44	5.910	5087.2	8.646	375.53	-1000000	-1000000	-1000000	-1000000	
23.46	5.910	5083.9	8.646	375.48	-1000000	-1000000	-1000000	-1000000	
23.48	5.910	5080.3	8.645	375.35	-1000000	-1000000	-1000000	-1000000	
23.50	5.910	5076.7	8.645	375.27	-1000000	-1000000	-1000000	-1000000	
23.52	5.910	5072.8	8.645	375.20	-1000000	-1000000	-1000000	-1000000	
23.54	5.910	5068.7	8.645	375.01	-1000000	-1000000	-1000000	-1000000	
23.56	5.910	5064.5	8.645	374.66	-1000000	-1000000	-1000000	-1000000	
23.58	5.910	5060.5	8.644	374.60	-1000000	-1000000	-1000000	-1000000	
23.60	5.910	5056.7	8.644	374.59	-1000000	-1000000	-1000000	-1000000	
23.62	5.910	5052.5	8.644	374.41	-1000000	-1000000	-1000000	-1000000	
23.64	5.910	5048.0	8.643	374.22	-1000000	-1000000	-1000000	-1000000	
23.66	5.910	5043.6	8.643	374.04	-1000000	-1000000	-1000000	-1000000	
23.68	5.910	5039.1	8.643	373.95	-1000000	-1000000	-1000000	-1000000	
23.70	5.910	5034.5	8.643	373.96	-1000000	-1000000	-1000000	-1000000	
23.72	5.910	5029.6	8.642	373.97	-1000000	-1000000	-1000000	-1000000	
23.74	5.910	5024.3	8.642	373.81	-1000000	-1000000	-1000000	-1000000	
23.76	5.910	5019.0	8.642	373.58	-1000000	-1000000	-1000000	-1000000	
23.78	5.910	5013.9	8.641	373.56	-1000000	-1000000	-1000000	-1000000	
23.80	5.910	5008.4	8.641	373.56	-1000000	-1000000	-1000000	-1000000	
23.82	5.910	5002.9	8.641	373.57	-1000000	-1000000	-1000000	-1000000	
23.84	5.910	4997.4	8.640	373.50	-1000000	-1000000	-1000000	-1000000	
23.86	5.910	4991.5	8.640	373.52	-1000000	-1000000	-1000000	-1000000	
23.88	5.910	4985.8	8.640	373.37	-1000000	-1000000	-1000000	-1000000	
23.90	5.909	4979.6	8.639	373.05	-1000000	-1000000	-1000000	-1000000	
23.92	5.909	4973.3	8.639	372.91	-1000000	-1000000	-1000000	-1000000	
23.94	5.909	4967.4	8.638	372.86	-1000000	-1000000	-1000000	-1000000	
23.96	5.909	4961.2	8.638	372.66	-1000000	-1000000	-1000000	-1000000	
23.98	5.909	4954.7	8.638	372.46	-1000000	-1000000	-1000000	-1000000	
24.00	5.909	4947.9	8.637	372.42	-1000000	-1000000	-1000000	-1000000	
24.02	5.909	4941.1	8.637	372.31	-1000000	-1000000	-1000000	-1000000	
24.04	5.909	4934.4	8.636	372.29	-1000000	-1000000	-1000000	-1000000	
24.06	5.909	4927.7	8.636	372.30	-1000000	-1000000	-1000000	-1000000	
24.08	5.909	4921.0	8.636	372.27	-1000000	-1000000	-1000000	-1000000	
24.10	5.909	4913.9	8.635	372.25	-1000000	-1000000	-1000000	-1000000	
24.12	5.909	4906.5	8.635	372.15	-1000000	-1000000	-1000000	-1000000	
24.14	5.909	4899.1	8.634	372.10	-1000000	-1000000	-1000000	-1000000	
24.16	5.909	4891.4	8.634	372.04	-1000000	-1000000	-1000000	-1000000	
24.18	5.908	4883.6	8.634	372.01	-1000000	-1000000	-1000000	-1000000	
24.20	5.908	4875.9	8.633	371.88	-1000000	-1000000	-1000000	-1000000	
24.22	5.908	4868.1	8.633	371.68	-1000000	-1000000	-1000000	-1000000	
24.24	5.908	4860.2	8.632	371.53	-1000000	-1000000	-1000000	-1000000	
24.26	5.908	4852.4	8.632	371.47	-1000000	-1000000	-1000000	-1000000	
24.28	5.908	4844.2	8.631	371.43	-1000000	-1000000	-1000000	-1000000	
24.30	5.908	4835.9	8.631	371.24	-1000000	-1000000	-1000000	-1000000	
24.32	5.908	4827.5	8.630	371.06	-1000000	-1000000	-1000000	-1000000	
24.34	5.908	4819.3	8.629	370.96	-1000000	-1000000	-1000000	-1000000	
24.36	5.908	4810.4	8.629	370.92	-1000000	-1000000	-1000000	-1000000	
24.38	5.907	4801.3	8.629	370.93	-1000000	-1000000	-1000000	-1000000	
24.40	5.907	4792.3	8.628	370.77	-1000000	-1000000	-1000000	-1000000	
24.42	5.907	4783.3	8.628	370.68	-1000000	-1000000	-1000000	-1000000	
24.44	5.907	4774.2	8.627	370.68	-1000000	-1000000	-1000000	-1000000	
24.46	5.907	4764.8	8.626	370.61	-1000000	-1000000	-1000000	-1000000	
24.48	5.907	4755.6	8.626	370.45	-1000000	-1000000	-1000000	-1000000	
24.50	5.907	4746.4	8.625	370.51	-1000000	-1000000	-1000000	-1000000	
24.52	5.907	4736.7	8.625	370.57	-1000000	-1000000	-1000000	-1000000	
24.54	5.906	4726.5	8.624	370.42	-1000000	-1000000	-1000000	-1000000	
24.56	5.906	4716.4	8.623	370.30	-1000000	-1000000	-1000000	-1000000	
24.58	5.906	4706.4	8.623	370.06	-1000000	-1000000	-1000000	-1000000	
24.60	5.906	4696.6	8.622	369.89	-1000000	-1000000	-1000000	-1000000	
24.62	5.906	4686.1	8.622	369.80	-1000000	-1000000	-1000000	-1000000	
24.64	5.906	4675.2	8.621	369.59	-1000000	-1000000	-1000000	-1000000	
24.66	5.906	4664.7	8.621	369.42	-1000000	-1000000	-1000000	-1000000	
24.68	5.905	4654.0	8.620	369.55	-1000000	-1000000	-1000000	-1000000	
24.70	5.905	4642.9	8.619	369.68	-1000000	-1000000	-1000000	-1000000	
24.72	5.905	4631.5	8.619	369.53	-1000000	-1000000	-1000000	-1000000	
24.74	5.905	4620.1	8.618	369.37	-1000000	-1000000	-1000000	-1000000	
24.76	5.905	4608.8	8.617	369.29	-1000000	-1000000	-1000000	-1000000	
24.78	5.905	4597.2	8.617	369.38	-1000000	-1000000	-1000000	-1000000	
24.80	5.904	4585.5	8.616	369.36	-1000000	-1000000	-1000000	-1000000	
24.82	5.904	4574.2	8.615	369.18	-1000000	-1000000	-1000000	-1000000	
24.84	5.904	4562.8	8.615	369.13	-1000000	-1000000	-1000000	-1000000	
24.86	5.904	4551.0	8.614	369.00	-1000000	-1000000	-1000000	-1000000	
24.88	5.904	4539.3	8.613	368.75	-1000000	-1000000	-1000000	-1000000	
24.90	5.904	4527.5	8.613	368.45	-1000000	-1000000	-1000000	-1000000	
24.92	5.903	4515.6	8.612	368.31	-1000000	-1000000	-1000000	-1000000	
24.94	5.903	4503.4	8.612	368.20	-1000000	-1000000	-1000000	-1000000	
24.96	5.903	4491.1	8.611	368.10	-1000000	-1000000	-1000000	-1000000	
24.98	5.903	4479.0	8.610	367.96	-1000000	-1000000	-1000000	-1000000	
25.00	5.903	4466.7	8.609	367.80	-1000000	-1000000	-1000000	-1000000	
25.02	5.903	4454.3	8.608	367.87	-1000000	-1000000	-1000000	-1000000	
25.04	5.903	4441.6	8.608	367.85	-1000000	-1000000	-1000000	-1000000	
25.06	5.902	4429.1	8.607	367.69	-1000000	-1000000	-1000000	-1000000	
25.08	5.902	4416.2	8.606	367.60	-1000000	-1000000	-1000000	-1000000	
25.10	5.902	4402.7	8.605	367.44	-1000000	-1000000	-1000000	-1000000	
25.12	5.902	4389.2	8.605	367.45	-1000000	-1000000	-1000000	-1000000	
25.14	5.901	4375.9	8.604	367.49	-1000000	-1000000	-1000000	-1000000	
25.16	5.901	4362.6	8.603	367.50	-1000000	-1000000	-1000000	-1000000	
25.18	5.901	4349.1	8.602	367.37	-1000000	-1000000	-1000000	-1000000	
25.20	5.901	4335.5	8.602	367.12	-1000000	-1000000	-1000000	-1000000	
25.22	5.901	4322.0	8.601	367.04	-1000000	-1000000	-1000000	-1000000	
25.24	5.900	4308.7	8.600	367.00	-1000000	-1000000	-1000000	-1000000	
25.26	5.900	4294.7	8.599	366.93	-1000000	-1000000	-1000000	-1000000	
25.28	5.900	4280.6	8.598	366.69	-1000000	-1000000	-1000000	-1000000	
25.30	5.900	4266.8	8.597	366.48	-1000000	-1000000	-1000000	-1000000	
25.32	5.900	4252.6	8.597	366.30	-1000000	-1000000	-1000000	-1000000	
25.34	5.899	4237.9	8.596	366.12	-1000000	-1000000	-1000000	-1000000	
25.36	5.899	4223.1	8.595	366.04	-1000000	-1000000	-1000000	-1000000	
25.38	5.899	4208.5	8.594	366.02	-1000000	-1000000	-1000000	-1000000	
25.40	5.899	4193.7	8.593	365.92	-1000000	-1000000	-1000000	-1000000	
25.42	5.899	4178.5	8.592	365.83	-1000000	-1000000	-1000000	-1000000	
25.44	5.898	4163.4	8.591	365.93	-1000000	-1000000	-1000000	-1000000	
25.46	5.898	4148.3	8.591	365.92	-1000000	-1000000	-1000000	-1000000	
25.48	5.898	4133.2	8.590	365.68	-1000000	-1000000	-1000000	-1000000	
25.50	5.898	4118.0	8.589	365.53	-1000000	-1000000	-1000000	-1000000	
25.52	5.897	4102.3	8.588	365.58	-1000000	-1000000	-1000000	-1000000	
25.54	5.897	4086.8	8.587	365.55	-1000000	-1000000	-1000000	-1000000	
25.56	5.897	4071.4	8.586	365.45	-1000000	-1000000	-1000000	-1000000	
25.58	5.897	4055.9	8.585	365.31	-1000000	-1000000	-1000000	-1000000	
25.60	5.897	4040.3	8.584	365.27	-1000000	-1000000	-1000000	-1000000	
25.62	5.896	4023.9	8.583	365.19	-1000000	-1000000	-1000000	-1000000	
25.64	5.896	4007.1	8.582	364.97	-1000000	-1000000	-1000000	-1000000	
25.66	5.896	3990.2	8.581	364.82	-1000000	-1000000	-1000000	-1000000	
25.68	5.896	3973.4	8.580	364.77	-1000000	-1000000	-1000000	-1000000	
25.70	5.895	3957.1	8.580	364.78	-1000000	-1000000	-1000000	-1000000	
25.72	5.895	3940.9	8.578	364.87	-1000000	-1000000	-1000000	-1000000	
25.74	5.895	3924.6	8.577	364.78	-1000000	-1000000	-1000000	-1000000	
25.76	5.895	3908.0	8.576	364.71	-1000000	-1000000	-1000000	-1000000	
25.78	5.894	3891.3	8.575	364.45	-1000000	-1000000	-1000000	-1000000	
25.80	5.894	3874.4	8.575	364.17	-1000000	-1000000	-1000000	-1000000	
25.82	5.894	3857.0	8.574	364.21	-1000000	-1000000	-1000000	-1000000	
25.84	5.894	3839.6	8.573	364.50	-1000000	-1000000	-1000000	-1000000	
25.86	5.894	3822.1	8.572	364.53	-1000000	-1000000	-1000000	-1000000	
25.88	5.893	3804.4	8.570	364.23	-1000000	-1000000	-1000000	-1000000	
25.90	5.893	3786.9	8.569	363.99	-1000000	-1000000	-1000000	-1000000	
25.92	5.893	3769.2	8.568	363.82	-1000000	-1000000	-1000000	-1000000	
25.94	5.893	3751.8	8.567	363.61	-1000000	-1000000	-1000000	-1000000	
25.96	5.892	3733.8	8.566	363.45	-1000000	-1000000	-1000000	-1000000	
25.98	5.892	3715.5	8.565	363.32	-1000000	-1000000	-1000000	-1000000	
26.00	5.892	3697.3	8.564	363.10	-1000000	-1000000	-1000000	-1000000	
26.02	5.892	3679.2	8.563	363.02	-1000000	-1000000	-1000000	-1000000	
26.04	5.891	3660.8	8.562	363.04	-1000000	-1000000	-1000000	-1000000	
26.06	5.891	3642.3	8.561	363.00	-1000000	-1000000	-1000000	-1000000	
26.08	5.891	3623.6	8.560	363.00	-1000000	-1000000	-1000000	-1000000	
26.10	5.891	3604.4	8.559	362.95	-1000000	-1000000	-1000000	-1000000	
26.12	5.890	3585.2	8.558	362.74	-1000000	-1000000	-1000000	-1000000	
26.14	5.890	3565.8	8.557	362.48	-1000000	-1000000	-1000000	-1000000	
26.16	5.890	3546.2	8.555	362.37	-1000000	-1000000	-1000000	-1000000	
26.18	5.889	3526.8	8.554	362.50	-1000000	-1000000	-1000000	-1000000	
26.20	5.889	3507.2	8.553	362.55	-1000000	-1000000	-1000000	-1000000	
26.22	5.889	3487.1	8.552	362.44	-1000000	-1000000	-1000000	-1000000	
26.24	5.889	3466.9	8.551	362.31	-1000000	-1000000	-1000000	-1000000	
26.26	5.888	3446.8	8.550	362.41	-1000000	-1000000	-1000000	-1000000	
26.28	5.888	3426.8	8.549	362.48	-1000000	-1000000	-1000000	-1000000	
26.30	5.888	3406.8	8.547	362.21	-1000000	-1000000	-1000000	-1000000	
26.32	5.887	3386.7	8.546	361.84	-1000000	-1000000	-1000000	-1000000	
26.34	5.887	3366.2	8.545	361.60	-1000000	-1000000	-1000000	-1000000	
26.36	5.887	3345.3	8.544	361.44	-1000000	-1000000	-1000000	-1000000	
26.38	5.887	3324.7	8.543	361.35	-1000000	-1000000	-1000000	-1000000	
26.40	5.886	3304.3	8.541	361.18	-1000000	-1000000	-1000000	-1000000	
26.42	5.886	3283.3	8.540	361.07	-1000000	-1000000	-1000000	-1000000	
26.44	5.886	3262.3	8.539	360.94	-1000000	-1000000	-1000000	-1000000	
26.46	5.885	3240.7	8.538	361.02	-1000000	-1000000	-1000000	-1000000	
26.48	5.885	3219.0	8.537	361.29	-1000000	-1000000	-1000000	-1000000	
26.50	5.885	3197.4	8.535	361.35	-1000000	-1000000	-1000000	-1000000	
26.52	5.884	3175.3	8.534	361.24	-1000000	-1000000	-1000000	-1000000	
26.54	5.884	3152.9	8.533	360.99	-1000000	-1000000	-1000000	-1000000	
26.56	5.884	3130.6	8.532	360.87	-1000000	-1000000	-1000000	-1000000	
26.58	5.884	3108.5	8.531	360.77	-1000000	-1000000	-1000000	-1000000	
26.60	5.883	3086.2	8.529	360.68	-1000000	-1000000	-1000000	-1000000	
26.62	5.883	3063.8	8.528	360.69	-1000000	-1000000	-1000000	-1000000	
26.64	5.883	3041.1	8.527	360.53	-1000000	-1000000	-1000000	-1000000	
26.66	5.882	3018.6	8.525	360.25	-1000000	-1000000	-1000000	-1000000	
26.68	5.882	2995.7	8.524	360.04	-1000000	-1000000	-1000000	-1000000	
26.70	5.882	2972.4	8.523	359.87	-1000000	-1000000	-1000000	-1000000	
26.72	5.881	2948.9	8.521	359.78	-1000000	-1000000	-1000000	-1000000	
26.74	5.881	2925.5	8.520	359.77	-1000000	-1000000	-1000000	-1000000	
26.76	5.881	2902.1	8.519	359.72	-1000000	-1000000	-1000000	-1000000	
26.78	5.880	2878.4	8.517	359.59	-1000000	-1000000	-1000000	-1000000	
26.80	5.880	2854.8	8.516	359.66	-1000000	-1000000	-1000000	-1000000	
26.82	5.880	2831.3	8.515	359.81	-1000000	-1000000	-1000000	-1000000	
26.84	5.879	2807.8	8.513	359.54	-1000000	-1000000	-1000000	-1000000	
26.86	5.879	2784.4	8.512	359.24	-1000000	-1000000	-1000000	-1000000	
26.88	5.879	2760.9	8.510	359.31	-1000000	-1000000	-1000000	-1000000	
26.90	5.878	2736.9	8.509	359.53	-1000000	-1000000	-1000000	-1000000	
26.92	5.878	2712.7	8.508	359.39	-1000000	-1000000	-1000000	-1000000	
26.94	5.878	2688.6	8.507	359.02	-1000000	-1000000	-1000000	-1000000	
26.96	5.877	2664.5	8.505	358.87	-1000000	-1000000	-1000000	-1000000	
26.98	5.877	2640.1	8.504	358.82	-1000000	-1000000	-1000000	-1000000	
27.00	5.877	2615.3	8.503	358.66	-1000000	-1000000	-1000000	-1000000	
27.02	5.876	2590.3	8.501	358.53	-1000000	-1000000	-1000000	-1000000	
27.04	5.876	2564.5	8.500	358.54	-1000000	-1000000	-1000000	-1000000	
27.06	5.876	2538.5	8.498	358.50	-1000000	-1000000	-1000000	-1000000	
27.08	5.875	2512.4	8.497	358.59	-1000000	-1000000	-1000000	-1000000	
27.10	5.875	2486.5	8.496	358.48	-1000000	-1000000	-1000000	-1000000	
27.12	5.875	2459.9	8.494	358.45	-1000000	-1000000	-1000000	-1000000	
27.14	5.874	2432.0	8.493	358.79	-1000000	-1000000	-1000000	-1000000	
27.16	5.874	2403.2	8.491	359.06	-1000000	-1000000	-1000000	-1000000	
27.18	5.874	2372.9	8.490	359.23	-1000000	-1000000	-1000000	-1000000	
27.20	5.873	2340.9	8.488	359.43	-1000000	-1000000	-1000000	-1000000	
27.22	5.873	2306.5	8.487	359.75	-1000000	-1000000	-1000000	-1000000	
27.24	5.873	2268.7	8.486	360.26	-1000000	-1000000	-1000000	-1000000	
27.26	5.872	2228.0	8.484	360.85	-1000000	-1000000	-1000000	-1000000	
27.28	5.872	2185.1	8.482	361.33	-1000000	-1000000	-1000000	-1000000	
27.30	5.872	2141.9	8.481	361.60	-1000000	-1000000	-1000000	-1000000	
27.32	5.871	2100.8	8.479	361.75	-1000000	-1000000	-1000000	-1000000	
27.34	5.871	2063.2	8.478	361.84	-1000000	-1000000	-1000000	-1000000	
27.36	5.871	2029.8	8.476	362.15	-1000000	-1000000	-1000000	-1000000	
27.38	5.870	1999.4	8.475	362.48	-1000000	-1000000	-1000000	-1000000	
27.40	5.870	1970.6	8.473	362.52	-1000000	-1000000	-1000000	-1000000	
27.42	5.870	1942.1	8.472	362.45	-1000000	-1000000	-1000000	-1000000	
27.44	5.869	1913.8	8.470	362.43	-1000000	-1000000	-1000000	-1000000	
27.46	5.869	1885.7	8.469	362.42	-1000000	-1000000	-1000000	-1000000	
27.48	5.869	1857.6	8.467	362.51	-1000000	-1000000	-1000000	-1000000	
27.50	5.868	1829.5	8.466	362.68	-1000000	-1000000	-1000000	-1000000	
27.52	5.868	1801.5	8.464	362.58	-1000000	-1000000	-1000000	-1000000	
27.54	5.867	1773.5	8.462	362.27	-1000000	-1000000	-1000000	-1000000	
27.56	5.867	1745.4	8.461	362.12	-1000000	-1000000	-1000000	-1000000	
27.58	5.867	1717.1	8.459	362.01	-1000000	-1000000	-1000000	-1000000	
27.60	5.866	1688.3	8.458	361.86	-1000000	-1000000	-1000000	-1000000	
27.62	5.866	1659.6	8.456	361.62	-1000000	-1000000	-1000000	-1000000	
27.64	5.865	1631.0	8.454	361.48	-1000000	-1000000	-1000000	-1000000	
27.66	5.865	1602.2	8.453	361.45	-1000000	-1000000	-1000000	-1000000	
27.68	5.865	1573.2	8.451	361.44	-1000000	-1000000	-1000000	-1000000	
27.70	5.864	1544.0	8.450	361.39	-1000000	-1000000	-1000000	-1000000	
27.72	5.864	1514.9	8.448	361.42	-1000000	-1000000	-1000000	-1000000	
27.74	5.863	1486.0	8.446	361.52	-1000000	-1000000	-1000000	-1000000	
27.76	5.863	1457.3	8.445	361.39	-1000000	-1000000	-1000000	-1000000	
27.78	5.863	1428.4	8.443	361.31	-1000000	-1000000	-1000000	-1000000	
27.80	5.862	1399.2	8.441	361.37	-1000000	-1000000	-1000000	-1000000	
27.82	5.862	1369.9	8.440	361.43	-1000000	-1000000	-1000000	-1000000	
27.84	5.861	1340.8	8.438	361.37	-1000000	-1000000	-1000000	-1000000	
27.86	5.861	1311.8	8.436	361.08	-1000000	-1000000	-1000000	-1000000	
27.88	5.860	1282.4	8.435	360.89	-1000000	-1000000	-1000000	-1000000	
27.90	5.860	1252.9	8.433	360.79	-1000000	-1000000	-1000000	-1000000	
27.92	5.860	1223.5	8.431	360.70	-1000000	-1000000	-1000000	-1000000	
27.94	5.859	1194.0	8.430	360.61	-1000000	-1000000	-1000000	-1000000	
27.96	5.859	1163.8	8.428	360.46	-1000000	-1000000	-1000000	-1000000	
27.98	5.858	1133.6	8.426	360.37	-1000000	-1000000	-1000000	-1000000	
28.00	5.858	1103.3	8.424	360.25	-1000000	-1000000	-1000000	-1000000	
28.02	5.857	1072.5	8.423	360.09	-1000000	-1000000	-1000000	-1000000	
28.04	5.857	1041.5	8.421	360.16	-1000000	-1000000	-1000000	-1000000	
28.06	5.857	1011.0	8.419	360.29	-1000000	-1000000	-1000000	-1000000	
28.08	5.856	980.32	8.417	360.47	-1000000	-1000000	-1000000	-1000000	
28.10	5.856	949.52	8.416	360.43	-1000000	-1000000	-1000000	-1000000	
28.12	5.855	918.67	8.414	360.38	-1000000	-1000000	-1000000	-1000000	
28.14	5.855	887.54	8.412	360.42	-1000000	-1000000	-1000000	-1000000	
28.16	5.854	856.70	8.410	360.39	-1000000	-1000000	-1000000	-1000000	
28.18	5.854	826.30	8.409	360.22	-1000000	-1000000	-1000000	-1000000	
28.20	5.854	796.00	8.407	360.04	-1000000	-1000000	-1000000	-1000000	
28.22	5.853	765.19	8.405	359.90	-1000000	-1000000	-1000000	-1000000	
28.24	5.853	734.08	8.403	359.72	-1000000	-1000000	-1000000	-1000000	
28.26	5.852	702.56	8.401	359.65	-1000000	-1000000	-1000000	-1000000	
28.28	5.852	671.00	8.399	359.65	-1000000	-1000000	-1000000	-1000000	
28.30	5.851	639.55	8.398	359.63	-1000000	-1000000	-1000000	-1000000	
28.32	5.851	607.93	8.396	359.72	-1000000	-1000000	-1000000	-1000000	
28.34	5.850	576.20	8.394	359.87	-1000000	-1000000	-1000000	-1000000	
28.36	5.850	544.31	8.392	359.72	-1000000	-1000000	-1000000	-1000000	
28.38	5.849	512.20	8.390	359.58	-1000000	-1000000	-1000000	-1000000	
28.40	5.849	479.79	8.388	359.33	-1000000	-1000000	-1000000	-1000000	
28.42	5.848	447.26	8.387	359.17	-1000000	-1000000	-1000000	-1000000	
28.44	5.848	415.06	8.385	359.17	-1000000	-1000000	-1000000	-1000000	
28.46	5.847	382.81	8.383	359.28	-1000000	-1000000	-1000000	-1000000	
28.48	5.847	350.20	8.381	359.25	-1000000	-1000000	-1000000	-1000000	
28.50	5.847	317.83	8.379	359.16	-1000000	-1000000	-1000000	-1000000	
28.52	5.846	285.90	8.377	359.17	-1000000	-1000000	-1000000	-1000000	
28.54	5.846	253.91	8.375	359.10	-1000000	-1000000	-1000000	-1000000	
28.56	5.845	221.66	8.373	358.96	-1000000	-1000000	-1000000	-1000000	
28.58	5.845	189.38	8.371	358.69	-1000000	-1000000	-1000000	-1000000	
28.60	5.844	156.70	8.369	358.64	-1000000	-1000000	-1000000	-1000000	
28.62	5.844	123.66	8.367	358.57	-1000000	-1000000	-1000000	-1000000	
28.64	5.843	91.10	8.366	358.35	-1000000	-1000000	-1000000	-1000000	
28.66	5.843	59.50	8.364	358.21	-1000000	-1000000	-1000000	-1000000	
28.68	5.843	29.32	8.362	358.19	-1000000	-1000000	-1000000	-1000000	
28.70	5.843	3.699	8.360	358.26	-1000000	-1000000	-1000000	-1000000	
28.72	5.843	-13.53	8.359	358.32	-1000000	-1000000	-1000000	-1000000	
28.74	5.843	-24.72	8.358	358.19	-1000000	-1000000	-1000000	-1000000	
28.76	5.842	-29.95	8.358	358.12	-1000000	-1000000	-1000000	-1000000	
28.78	5.842	-31.30	8.358	358.17	-1000000	-1000000	-1000000	-1000000	
28.80	5.842	-30.83	8.357	358.25	-1000000	-1000000	-1000000	-1000000	
28.82	5.842	-30.88	8.357	358.15	-1000000	-1000000	-1000000	-1000000	
28.84	5.842	-30.91	8.357	357.99	-1000000	-1000000	-1000000	-1000000	
28.86	5.842	-31.00	8.357	357.85	-1000000	-1000000	-1000000	-1000000	
28.88	5.842	-31.00	8.357	357.81	-1000000	-1000000	-1000000	-1000000	
28.90	5.842	-30.78	8.357	357.64	-1000000	-1000000	-1000000	-1000000	
28.92	5.842	-30.94	8.357	357.48	-1000000	-1000000	-1000000	-1000000	
28.94	5.842	-30.76	8.357	357.36	-1000000	-1000000	-1000000	-1000000	
28.96	5.842	-30.98	8.357	357.18	-1000000	-1000000	-1000000	-1000000	
28.98	5.842	-30.85	8.357	357.06	-1000000	-1000000	-1000000	-1000000	
29.00	5.842	-30.77	8.357	356.79	-1000000	-1000000	-1000000	-1000000	
29.02	5.842	-30.63	8.357	356.80	-1000000	-1000000	-1000000	-1000000	
29.04	5.842	-30.69	8.357	357.13	-1000000	-1000000	-1000000	-1000000	
29.06	5.842	-30.73	8.357	357.17	-1000000	-1000000	-1000000	-1000000	
29.08	5.842	-30.63	8.357	357.02	-1000000	-1000000	-1000000	-1000000	
29.10	5.842	-30.93	8.357	357.04	-1000000	-1000000	-1000000	-1000000	
29.12	5.842	-30.74	8.357	356.98	-1000000	-1000000	-1000000	-1000000	
29.14	5.842	-30.86	8.357	356.91	-1000000	-1000000	-1000000	-1000000	
29.16	5.842	-30.57	8.357	356.93	-1000000	-1000000	-1000000	-1000000	
29.18	5.842	-30.56	8.357	356.71	-1000000	-1000000	-1000000	-1000000	
29.20	5.842	-30.55	8.357	356.52	-1000000	-1000000	-1000000	-1000000	
29.22	5.842	-30.67	8.357	356.56	-1000000	-1000000	-1000000	-1000000	
29.24	5.842	-30.81	8.357	356.41	-1000000	-1000000	-1000000	-1000000	
29.26	5.841	-19.91	8.357	356.07	-1000000	-1000000	-1000000	-1000000	
29.28	5.841	14.13	8.357	355.92	-1000000	-1000000	-1000000	-1000000	
29.30	5.841	40.11	8.357	355.92	-1000000	-1000000	-1000000	-1000000	
29.32	5.841	49.40	8.357	355.90	-1000000	-1000000	-1000000	-1000000	
29.34	5.841	52.00	8.357	355.88	-1000000	-1000000	-1000000	-1000000	
29.36	5.841	53.95	8.357	356.03	-1000000	-1000000	-1000000	-1000000	
29.38	5.841	56.20	8.357	355.98	-1000000	-1000000	-1000000	-1000000	
29.40	5.841	58.47	8.357	355.77	-1000000	-1000000	-1000000	-1000000	
29.42	5.841	60.46	8.357	355.55	-1000000	-1000000	-1000000	-1000000	
29.44	5.841	62.60	8.357	355.34	-1000000	-1000000	-1000000	-1000000	
29.46	5.841	65.01	8.357	355.52	-1000000	-1000000	-1000000	-1000000	
29.48	5.841	67.75	8.357	355.52	-1000000	-1000000	-1000000	-1000000	
29.50	5.841	69.99	8.357	355.44	-1000000	-1000000	-1000000	-1000000	
29.52	5.841	71.93	8.357	355.36	-1000000	-1000000	-1000000	-1000000	
29.54	5.841	74.16	8.357	355.32	-1000000	-1000000	-1000000	-1000000	
29.56	5.841	76.68	8.357	355.34	-1000000	-1000000	-1000000	-1000000	
29.58	5.841	79.08	8.357	355.37	-1000000	-1000000	-1000000	-1000000	
29.60	5.841	81.12	8.357	355.19	-1000000	-1000000	-1000000	-1000000	
29.62	5.841	83.23	8.357	354.71	-1000000	-1000000	-1000000	-1000000	
29.64	5.841	85.31	8.357	354.37	-1000000	-1000000	-1000000	-1000000	
29.66	5.841	87.41	8.357	354.39	-1000000	-1000000	-1000000	-1000000	
29.68	5.841	89.62	8.357	354.24	-1000000	-1000000	-1000000	-1000000	
29.70	5.841	91.75	8.357	354.09	-1000000	-1000000	-1000000	-1000000	
29.72	5.841	93.79	8.357	354.10	-1000000	-1000000	-1000000	-1000000	
29.74	5.841	95.86	8.357	354.00	-1000000	-1000000	-1000000	-1000000	
29.76	5.841	97.78	8.357	354.07	-1000000	-1000000	-1000000	-1000000	
29.78	5.841	99.98	8.357	354.28	-1000000	-1000000	-1000000	-1000000	
29.80	5.841	102.04	8.357	354.45	-1000000	-1000000	-1000000	-1000000	
29.82	5.841	103.99	8.357	354.36	-1000000	-1000000	-1000000	-1000000	
29.84	5.841	105.91	8.357	354.23	-1000000	-1000000	-1000000	-1000000	
29.86	5.841	107.69	8.357	354.10	-1000000	-1000000	-1000000	-1000000	
29.88	5.841	109.42	8.357	354.02	-1000000	-1000000	-1000000	-1000000	
29.90	5.841	111.07	8.357	354.00	-1000000	-1000000	-1000000	-1000000	
29.92	5.840	112.83	8.357	353.81	-1000000	-1000000	-1000000	-1000000	
29.94	5.840	114.57	8.357	353.67	-1000000	-1000000	-1000000	-1000000	
29.96	5.840	116.63	8.357	353.54	-1000000	-1000000	-1000000	-1000000	
29.98	5.840	118.93	8.357	353.41	-1000000	-1000000	-1000000	-1000000	
30.00	5.840	121.06	8.357	353.30	-1000000	-1000000	-1000000	-1000000	
30.02	5.840	122.99	8.357	353.15	-1000000	-1000000	-1000000	-1000000	
30.04	5.840	125.09	8.357	353.07	-1000000	-1000000	-1000000	-1000000	
30.06	5.840	127.32	8.357	353.16	-1000000	-1000000	-1000000	-1000000	
30.08	5.840	129.39	8.357	353.16	-1000000	-1000000	-1000000	-1000000	
30.10	5.840	131.29	8.357	353.16	-1000000	-1000000	-1000000	-1000000	
30.12	5.840	133.15	8.357	353.15	-1000000	-1000000	-1000000	-1000000	
30.14	5.840	134.75	8.357	353.18	-1000000	-1000000	-1000000	-1000000	
30.16	5.840	136.32	8.357	353.13	-1000000	-1000000	-1000000	-1000000	
30.18	5.840	138.31	8.357	353.01	-1000000	-1000000	-1000000	-1000000	
30.20	5.840	140.42	8.357	353.12	-1000000	-1000000	-1000000	-1000000	
30.22	5.840	142.34	8.357	353.14	-1000000	-1000000	-1000000	-1000000	
30.24	5.840	143.94	8.357	352.92	-1000000	-1000000	-1000000	-1000000	
30.26	5.840	145.42	8.357	352.67	-1000000	-1000000	-1000000	-1000000	
30.28	5.840	147.45	8.357	352.45	-1000000	-1000000	-1000000	-1000000	
30.30	5.840	149.68	8.357	352.12	-1000000	-1000000	-1000000	-1000000	
30.32	5.840	151.57	8.357	351.93	-1000000	-1000000	-1000000	-1000000	
30.34	5.840	153.22	8.357	351.99	-1000000	-1000000	-1000000	-1000000	
30.36	5.840	154.83	8.357	352.11	-1000000	-1000000	-1000000	-1000000	
30.38	5.840	156.45	8.357	352.01	-1000000	-1000000	-1000000	-1000000	
30.40	5.840	158.31	8.357	351.99	-1000000	-1000000	-1000000	-1000000	
30.42	5.840	160.03	8.357	352.11	-1000000	-1000000	-1000000	-1000000	
30.44	5.840	161.71	8.357	352.10	-1000000	-1000000	-1000000	-1000000	
30.46	5.840	163.60	8.357	351.94	-1000000	-1000000	-1000000	-1000000	
30.48	5.840	165.43	8.357	351.95	-1000000	-1000000	-1000000	-1000000	
30.50	5.840	167.60	8.357	351.88	-1000000	-1000000	-1000000	-1000000	
30.52	5.840	169.87	8.357	351.65	-1000000	-1000000	-1000000	-1000000	
30.54	5.840	171.71	8.357	351.26	-1000000	-1000000	-1000000	-1000000	
30.56	5.840	173.69	8.357	351.25	-1000000	-1000000	-1000000	-1000000	
30.58	5.840	175.81	8.357	351.05	-1000000	-1000000	-1000000	-1000000	
30.60	5.840	178.00	8.357	350.78	-1000000	-1000000	-1000000	-1000000	
30.62	5.840	180.07	8.357	350.70	-1000000	-1000000	-1000000	-1000000	
30.64	5.840	181.88	8.357	350.64	-1000000	-1000000	-1000000	-1000000	
30.66	5.840	183.87	8.357	350.56	-1000000	-1000000	-1000000	-1000000	
30.68	5.840	185.73	8.357	350.59	-1000000	-1000000	-1000000	-1000000	
30.70	5.840	187.60	8.357	350.51	-1000000	-1000000	-1000000	-1000000	
30.72	5.840	189.64	8.357	350.50	-1000000	-1000000	-1000000	-1000000	
30.74	5.840	191.75	8.357	350.71	-1000000	-1000000	-1000000	-1000000	
30.76	5.840	193.60	8.357	350.62	-1000000	-1000000	-1000000	-1000000	
30.78	5.839	195.12	8.357	350.49	-1000000	-1000000	-1000000	-1000000	
30.80	5.839	196.58	8.357	350.44	-1000000	-1000000	-1000000	-1000000	
30.82	5.839	198.27	8.357	350.24	-1000000	-1000000	-1000000	-1000000	
30.84	5.839	199.97	8.357	350.03	-1000000	-1000000	-1000000	-1000000	
30.86	5.839	201.95	8.357	349.88	-1000000	-1000000	-1000000	-1000000	
30.88	5.839	204.09	8.357	349.75	-1000000	-1000000	-1000000	-1000000	
30.90	5.839	206.02	8.357	349.46	-1000000	-1000000	-1000000	-1000000	
30.92	5.839	207.72	8.357	349.23	-1000000	-1000000	-1000000	-1000000	
30.94	5.839	209.32	8.357	349.10	-1000000	-1000000	-1000000	-1000000	
30.96	5.839	210.71	8.357	349.22	-1000000	-1000000	-1000000	-1000000	
30.98	5.839	212.48	8.357	349.33	-1000000	-1000000	-1000000	-1000000	
31.00	5.839	214.41	8.357	349.18	-1000000	-1000000	-1000000	-1000000	
31.02	5.839	216.17	8.357	349.23	-1000000	-1000000	-1000000	-1000000	
31.04	5.839	217.77	8.357	349.38	-1000000	-1000000	-1000000	-1000000	
31.06	5.839	219.31	8.357	349.23	-1000000	-1000000	-1000000	-1000000	
31.08	5.839	220.87	8.357	349.07	-1000000	-1000000	-1000000	-1000000	
31.10	5.839	222.51	8.357	349.03	-1000000	-1000000	-1000000	-1000000	
31.12	5.839	224.43	8.357	349.05	-1000000	-1000000	-1000000	-1000000	
31.14	5.839	226.69	8.357	349.13	-1000000	-1000000	-1000000	-1000000	
31.16	5.839	228.67	8.357	348.95	-1000000	-1000000	-1000000	-1000000	
31.18	5.839	230.34	8.357	348.66	-1000000	-1000000	-1000000	-1000000	
31.20	5.839	231.93	8.357	348.51	-1000000	-1000000	-1000000	-1000000	
31.22	5.839	233.68	8.357	348.42	-1000000	-1000000	-1000000	-1000000	
31.24	5.839	235.37	8.357	348.23	-1000000	-1000000	-1000000	-1000000	
31.26	5.839	236.83	8.357	347.97	-1000000	-1000000	-1000000	-1000000	
31.28	5.839	238.43	8.357	347.85	-1000000	-1000000	-1000000	-1000000	
31.30	5.839	240.67	8.358	347.98	-1000000	-1000000	-1000000	-1000000	
31.32	5.839	242.98	8.357	348.02	-1000000	-1000000	-1000000	-1000000	
31.34	5.839	244.74	8.357	347.90	-1000000	-1000000	-1000000	-1000000	
31.36	5.839	246.29	8.357	347.91	-1000000	-1000000	-1000000	-1000000	
31.38	5.839	247.89	8.358	347.97	-1000000	-1000000	-1000000	-1000000	
31.40	5.839	249.77	8.357	347.94	-1000000	-1000000	-1000000	-1000000	
31.42	5.839	251.53	8.357	347.83	-1000000	-1000000	-1000000	-1000000	
31.44	5.839	253.04	8.357	347.93	-1000000	-1000000	-1000000	-1000000	
31.46	5.839	254.71	8.357	347.92	-1000000	-1000000	-1000000	-1000000	
31.48	5.839	256.36	8.357	347.65	-1000000	-1000000	-1000000	-1000000	
31.50	5.839	257.96	8.357	347.55	-1000000	-1000000	-1000000	-1000000	
31.52	5.839	259.61	8.357	347.59	-1000000	-1000000	-1000000	-1000000	
31.54	5.839	260.80	8.357	347.58	-1000000	-1000000	-1000000	-1000000	
31.56	5.839	262.11	8.357	347.34	-1000000	-1000000	-1000000	-1000000	
31.58	5.839	263.65	8.357	347.05	-1000000	-1000000	-1000000	-1000000	
31.60	5.839	265.34	8.357	346.85	-1000000	-1000000	-1000000	-1000000	
31.62	5.839	267.22	8.357	346.91	-1000000	-1000000	-1000000	-1000000	
31.64	5.838	269.38	8.357	347.09	-1000000	-1000000	-1000000	-1000000	
31.66	5.838	271.39	8.357	347.16	-1000000	-1000000	-1000000	-1000000	
31.68	5.838	273.13	8.357	347.12	-1000000	-1000000	-1000000	-1000000	
31.70	5.838	275.15	8.357	347.05	-1000000	-1000000	-1000000	-1000000	
31.72	5.838	277.31	8.357	347.07	-1000000	-1000000	-1000000	-1000000	
31.74	5.838	279.15	8.357	347.26	-1000000	-1000000	-1000000	-1000000	
31.76	5.838	280.84	8.357	347.24	-1000000	-1000000	-1000000	-1000000	
31.78	5.838	282.65	8.357	347.05	-1000000	-1000000	-1000000	-1000000	
31.80	5.838	284.31	8.357	346.65	-1000000	-1000000	-1000000	-1000000	
31.82	5.838	285.92	8.357	346.45	-1000000	-1000000	-1000000	-1000000	
31.84	5.838	287.61	8.357	346.32	-1000000	-1000000	-1000000	-1000000	
31.86	5.838	289.34	8.357	346.03	-1000000	-1000000	-1000000	-1000000	
31.88	5.838	291.31	8.357	345.63	-1000000	-1000000	-1000000	-1000000	
31.90	5.838	293.23	8.357	345.33	-1000000	-1000000	-1000000	-1000000	
31.92	5.838	295.07	8.357	345.37	-1000000	-1000000	-1000000	-1000000	
31.94	5.838	296.76	8.357	345.56	-1000000	-1000000	-1000000	-1000000	
31.96	5.838	298.48	8.357	345.67	-1000000	-1000000	-1000000	-1000000	
31.98	5.838	300.33	8.357	345.77	-1000000	-1000000	-1000000	-1000000	
32.00	5.838	302.27	8.357	345.74	-1000000	-1000000	-1000000	-1000000	
32.02	5.838	304.06	8.357	345.74	-1000000	-1000000	-1000000	-1000000	
32.04	5.838	305.81	8.357	345.84	-1000000	-1000000	-1000000	-1000000	
32.06	5.838	307.51	8.357	345.73	-1000000	-1000000	-1000000	-1000000	
32.08	5.838	309.30	8.357	345.40	-1000000	-1000000	-1000000	-1000000	
32.10	5.838	310.99	8.357	345.20	-1000000	-1000000	-1000000	-1000000	
32.12	5.838	312.67	8.357	345.24	-1000000	-1000000	-1000000	-1000000	
32.14	5.838	314.48	8.357	345.57	-1000000	-1000000	-1000000	-1000000	
32.16	5.838	316.33	8.357	345.54	-1000000	-1000000	-1000000	-1000000	
32.18	5.838	318.01	8.357	345.06	-1000000	-1000000	-1000000	-1000000	
32.20	5.838	319.49	8.357	344.53	-1000000	-1000000	-1000000	-1000000	
32.22	5.838	321.18	8.357	344.33	-1000000	-1000000	-1000000	-1000000	
32.24	5.838	322.82	8.357	344.45	-1000000	-1000000	-1000000	-1000000	
32.26	5.838	324.34	8.357	344.66	-1000000	-1000000	-1000000	-1000000	
32.28	5.838	326.00	8.357	344.52	-1000000	-1000000	-1000000	-1000000	
32.30	5.838	327.65	8.357	344.08	-1000000	-1000000	-1000000	-1000000	
32.32	5.838	329.18	8.357	344.07	-1000000	-1000000	-1000000	-1000000	
32.34	5.838	330.86	8.357	344.50	-1000000	-1000000	-1000000	-1000000	
32.36	5.838	332.63	8.357	344.46	-1000000	-1000000	-1000000	-1000000	
32.38	5.838	334.27	8.357	344.09	-1000000	-1000000	-1000000	-1000000	
32.40	5.838	335.97	8.357	343.94	-1000000	-1000000	-1000000	-1000000	
32.42	5.838	337.69	8.357	343.83	-1000000	-1000000	-1000000	-1000000	
32.44	5.838	339.48	8.357	343.76	-1000000	-1000000	-1000000	-1000000	
32.46	5.838	340.88	8.357	343.57	-1000000	-1000000	-1000000	-1000000	
32.48	5.838	342.05	8.357	343.39	-1000000	-1000000	-1000000	-1000000	
32.50	5.838	343.57	8.357	343.33	-1000000	-1000000	-1000000	-1000000	
32.52	5.838	345.30	8.357	342.95	-1000000	-1000000	-1000000	-1000000	
32.54	5.838	346.80	8.357	342.74	-1000000	-1000000	-1000000	-1000000	
32.56	5.838	348.12	8.357	343.05	-1000000	-1000000	-1000000	-1000000	
32.58	5.838	349.48	8.357	343.27	-1000000	-1000000	-1000000	-1000000	
32.60	5.838	350.96	8.357	343.15	-1000000	-1000000	-1000000	-1000000	
32.62	5.837	352.51	8.357	343.30	-1000000	-1000000	-1000000	-1000000	
32.64	5.837	354.33	8.357	343.43	-1000000	-1000000	-1000000	-1000000	
32.66	5.837	356.32	8.357	343.58	-1000000	-1000000	-1000000	-1000000	
32.68	5.837	358.01	8.357	343.29	-1000000	-1000000	-1000000	-1000000	
32.70	5.837	359.65	8.357	342.90	-1000000	-1000000	-1000000	-1000000	
32.72	5.837	361.67	8.357	342.71	-1000000	-1000000	-1000000	-1000000	
32.74	5.837	363.70	8.357	342.55	-1000000	-1000000	-1000000	-1000000	
32.76	5.837	365.57	8.357	342.26	-1000000	-1000000	-1000000	-1000000	
32.78	5.837	367.31	8.357	341.86	-1000000	-1000000	-1000000	-1000000	
32.80	5.837	369.12	8.357	341.72	-1000000	-1000000	-1000000	-1000000	
32.82	5.837	371.23	8.357	341.85	-1000000	-1000000	-1000000	-1000000	
32.84	5.837	373.02	8.357	341.75	-1000000	-1000000	-1000000	-1000000	
32.86	5.837	374.62	8.357	341.46	-1000000	-1000000	-1000000	-1000000	
32.88	5.837	376.70	8.357	341.29	-1000000	-1000000	-1000000	-1000000	
32.90	5.837	378.73	8.357	341.27	-1000000	-1000000	-1000000	-1000000	
32.92	5.837	380.54	8.357	341.28	-1000000	-1000000	-1000000	-1000000	
32.94	5.837	382.29	8.357	341.24	-1000000	-1000000	-1000000	-1000000	