Zeit  1 - Standardmessrate [s]	Maytec [mm]	Kraft [N]	Standardwegaufnehmer [mm]	Pyrometer [°C]	Drehwinkel [V]	MX840_0_CH 6 [V]	MX840_0_CH 7 [V]	MX840_0_CH 8 [V]
0	0.06871	128.04	-0.2182	300.15	-1000000	-1000000	-1000000	-1000000	
0.02000	0.06872	127.90	-0.2182	300.14	-1000000	-1000000	-1000000	-1000000	
0.04000	0.06875	127.85	-0.2182	300.12	-1000000	-1000000	-1000000	-1000000	
0.06000	0.06879	128.03	-0.2182	300.14	-1000000	-1000000	-1000000	-1000000	
0.08000	0.06877	128.13	-0.2182	300.16	-1000000	-1000000	-1000000	-1000000	
0.1000	0.06868	128.01	-0.2182	300.16	-1000000	-1000000	-1000000	-1000000	
0.1200	0.06868	127.90	-0.2182	300.13	-1000000	-1000000	-1000000	-1000000	
0.1400	0.06875	128.05	-0.2182	300.11	-1000000	-1000000	-1000000	-1000000	
0.1600	0.06880	128.14	-0.2183	300.12	-1000000	-1000000	-1000000	-1000000	
0.1800	0.06883	128.10	-0.2182	300.14	-1000000	-1000000	-1000000	-1000000	
0.2000	0.06881	128.07	-0.2182	300.14	-1000000	-1000000	-1000000	-1000000	
0.2200	0.06880	128.07	-0.2182	300.13	-1000000	-1000000	-1000000	-1000000	
0.2400	0.06880	128.00	-0.2180	300.11	-1000000	-1000000	-1000000	-1000000	
0.2600	0.06883	127.96	-0.2178	300.13	-1000000	-1000000	-1000000	-1000000	
0.2800	0.06888	127.93	-0.2176	300.15	-1000000	-1000000	-1000000	-1000000	
0.3000	0.06889	127.90	-0.2176	300.14	-1000000	-1000000	-1000000	-1000000	
0.3200	0.06890	127.91	-0.2175	300.12	-1000000	-1000000	-1000000	-1000000	
0.3400	0.06893	128.49	-0.2175	300.12	-1000000	-1000000	-1000000	-1000000	
0.3600	0.06893	129.31	-0.2176	300.14	-1000000	-1000000	-1000000	-1000000	
0.3800	0.06891	129.26	-0.2176	300.15	-1000000	-1000000	-1000000	-1000000	
0.4000	0.06890	128.57	-0.2177	300.13	-1000000	-1000000	-1000000	-1000000	
0.4200	0.06891	128.02	-0.2176	300.11	-1000000	-1000000	-1000000	-1000000	
0.4400	0.06893	127.87	-0.2175	300.12	-1000000	-1000000	-1000000	-1000000	
0.4600	0.06894	127.84	-0.2175	300.14	-1000000	-1000000	-1000000	-1000000	
0.4800	0.06900	127.85	-0.2175	300.14	-1000000	-1000000	-1000000	-1000000	
0.5000	0.06909	127.89	-0.2175	300.12	-1000000	-1000000	-1000000	-1000000	
0.5200	0.06910	127.95	-0.2175	300.11	-1000000	-1000000	-1000000	-1000000	
0.5400	0.06906	128.02	-0.2176	300.13	-1000000	-1000000	-1000000	-1000000	
0.5600	0.06899	127.98	-0.2176	300.15	-1000000	-1000000	-1000000	-1000000	
0.5800	0.06894	127.87	-0.2172	300.14	-1000000	-1000000	-1000000	-1000000	
0.6000	0.06899	127.68	-0.2169	300.11	-1000000	-1000000	-1000000	-1000000	
0.6200	0.06907	127.82	-0.2168	300.12	-1000000	-1000000	-1000000	-1000000	
0.6400	0.06911	128.19	-0.2168	300.14	-1000000	-1000000	-1000000	-1000000	
0.6600	0.06914	128.35	-0.2168	300.14	-1000000	-1000000	-1000000	-1000000	
0.6800	0.06913	128.27	-0.2169	300.12	-1000000	-1000000	-1000000	-1000000	
0.7000	0.06913	128.05	-0.2169	300.11	-1000000	-1000000	-1000000	-1000000	
0.7200	0.06913	127.96	-0.2169	300.13	-1000000	-1000000	-1000000	-1000000	
0.7400	0.06911	128.06	-0.2169	300.15	-1000000	-1000000	-1000000	-1000000	
0.7600	0.06907	128.09	-0.2169	300.14	-1000000	-1000000	-1000000	-1000000	
0.7800	0.06905	128.06	-0.2168	300.12	-1000000	-1000000	-1000000	-1000000	
0.8000	0.06907	128.08	-0.2168	300.12	-1000000	-1000000	-1000000	-1000000	
0.8200	0.06914	128.14	-0.2168	300.14	-1000000	-1000000	-1000000	-1000000	
0.8400	0.06916	128.15	-0.2169	300.15	-1000000	-1000000	-1000000	-1000000	
0.8600	0.06913	128.30	-0.2169	300.13	-1000000	-1000000	-1000000	-1000000	
0.8800	0.06913	128.28	-0.2166	300.11	-1000000	-1000000	-1000000	-1000000	
0.9000	0.06916	128.15	-0.2163	300.12	-1000000	-1000000	-1000000	-1000000	
0.9200	0.06921	128.16	-0.2162	300.14	-1000000	-1000000	-1000000	-1000000	
0.9400	0.06921	128.21	-0.2162	300.14	-1000000	-1000000	-1000000	-1000000	
0.9600	0.06917	128.13	-0.2162	300.12	-1000000	-1000000	-1000000	-1000000	
0.9800	0.06925	128.03	-0.2163	300.12	-1000000	-1000000	-1000000	-1000000	
1.000	0.06936	128.01	-0.2162	300.14	-1000000	-1000000	-1000000	-1000000	
1.020	0.06938	128.00	-0.2162	300.15	-1000000	-1000000	-1000000	-1000000	
1.040	0.06936	128.02	-0.2161	300.13	-1000000	-1000000	-1000000	-1000000	
1.060	0.06934	128.00	-0.2161	300.11	-1000000	-1000000	-1000000	-1000000	
1.080	0.06934	128.00	-0.2161	300.12	-1000000	-1000000	-1000000	-1000000	
1.100	0.06928	128.00	-0.2162	300.14	-1000000	-1000000	-1000000	-1000000	
1.120	0.06924	127.95	-0.2163	300.14	-1000000	-1000000	-1000000	-1000000	
1.140	0.06933	128.08	-0.2162	300.12	-1000000	-1000000	-1000000	-1000000	
1.160	0.06940	128.15	-0.2160	300.11	-1000000	-1000000	-1000000	-1000000	
1.180	0.06944	128.34	-0.2156	300.13	-1000000	-1000000	-1000000	-1000000	
1.200	0.06944	129.10	-0.2155	300.15	-1000000	-1000000	-1000000	-1000000	
1.220	0.06941	129.85	-0.2155	300.13	-1000000	-1000000	-1000000	-1000000	
1.240	0.06939	129.98	-0.2155	300.11	-1000000	-1000000	-1000000	-1000000	
1.260	0.06941	129.61	-0.2155	300.12	-1000000	-1000000	-1000000	-1000000	
1.280	0.06941	128.74	-0.2155	300.14	-1000000	-1000000	-1000000	-1000000	
1.300	0.06945	128.24	-0.2155	300.14	-1000000	-1000000	-1000000	-1000000	
1.320	0.06952	128.15	-0.2155	300.12	-1000000	-1000000	-1000000	-1000000	
1.340	0.06955	128.10	-0.2156	300.11	-1000000	-1000000	-1000000	-1000000	
1.360	0.06954	128.11	-0.2156	300.13	-1000000	-1000000	-1000000	-1000000	
1.380	0.06951	128.20	-0.2155	300.15	-1000000	-1000000	-1000000	-1000000	
1.400	0.06951	128.14	-0.2155	300.14	-1000000	-1000000	-1000000	-1000000	
1.420	0.06952	128.04	-0.2155	300.12	-1000000	-1000000	-1000000	-1000000	
1.440	0.06952	128.11	-0.2154	300.11	-1000000	-1000000	-1000000	-1000000	
1.460	0.06957	128.11	-0.2155	300.13	-1000000	-1000000	-1000000	-1000000	
1.480	0.06963	128.09	-0.2154	300.15	-1000000	-1000000	-1000000	-1000000	
1.500	0.06967	128.15	-0.2151	300.13	-1000000	-1000000	-1000000	-1000000	
1.520	0.06967	128.16	-0.2148	300.11	-1000000	-1000000	-1000000	-1000000	
1.540	0.06965	128.13	-0.2148	300.13	-1000000	-1000000	-1000000	-1000000	
1.560	0.06963	127.94	-0.2148	300.15	-1000000	-1000000	-1000000	-1000000	
1.580	0.06963	127.90	-0.2149	300.14	-1000000	-1000000	-1000000	-1000000	
1.600	0.06966	128.03	-0.2149	300.12	-1000000	-1000000	-1000000	-1000000	
1.620	0.06964	128.16	-0.2149	300.12	-1000000	-1000000	-1000000	-1000000	
1.640	0.06960	128.13	-0.2149	300.13	-1000000	-1000000	-1000000	-1000000	
1.660	0.06966	127.93	-0.2149	300.15	-1000000	-1000000	-1000000	-1000000	
1.680	0.06972	127.88	-0.2149	300.13	-1000000	-1000000	-1000000	-1000000	
1.700	0.06971	127.94	-0.2149	300.11	-1000000	-1000000	-1000000	-1000000	
1.720	0.06968	128.10	-0.2149	300.12	-1000000	-1000000	-1000000	-1000000	
1.740	0.06968	128.08	-0.2149	300.14	-1000000	-1000000	-1000000	-1000000	
1.760	0.06970	128.08	-0.2149	300.15	-1000000	-1000000	-1000000	-1000000	
1.780	0.06971	128.21	-0.2149	300.12	-1000000	-1000000	-1000000	-1000000	
1.800	0.06977	128.27	-0.2147	300.11	-1000000	-1000000	-1000000	-1000000	
1.820	0.06983	128.24	-0.2143	300.13	-1000000	-1000000	-1000000	-1000000	
1.840	0.06982	128.27	-0.2141	300.14	-1000000	-1000000	-1000000	-1000000	
1.860	0.06981	128.33	-0.2141	300.14	-1000000	-1000000	-1000000	-1000000	
1.880	0.06982	128.42	-0.2141	300.11	-1000000	-1000000	-1000000	-1000000	
1.900	0.06985	128.36	-0.2141	300.12	-1000000	-1000000	-1000000	-1000000	
1.920	0.06984	128.19	-0.2142	300.14	-1000000	-1000000	-1000000	-1000000	
1.940	0.06983	128.27	-0.2143	300.14	-1000000	-1000000	-1000000	-1000000	
1.960	0.06982	128.30	-0.2143	300.13	-1000000	-1000000	-1000000	-1000000	
1.980	0.06982	128.22	-0.2143	300.11	-1000000	-1000000	-1000000	-1000000	
2.000	0.06988	128.15	-0.2142	300.13	-1000000	-1000000	-1000000	-1000000	
2.020	0.06992	128.14	-0.2142	300.15	-1000000	-1000000	-1000000	-1000000	
2.040	0.06989	128.20	-0.2142	300.14	-1000000	-1000000	-1000000	-1000000	
2.060	0.06988	128.28	-0.2143	300.12	-1000000	-1000000	-1000000	-1000000	
2.080	0.06989	128.21	-0.2142	300.11	-1000000	-1000000	-1000000	-1000000	
2.100	0.06991	128.11	-0.2141	300.13	-1000000	-1000000	-1000000	-1000000	
2.120	0.06993	128.03	-0.2138	300.15	-1000000	-1000000	-1000000	-1000000	
2.140	0.06995	128.06	-0.2137	300.13	-1000000	-1000000	-1000000	-1000000	
2.160	0.07001	128.02	-0.2136	300.12	-1000000	-1000000	-1000000	-1000000	
2.180	0.07007	128.09	-0.2135	300.12	-1000000	-1000000	-1000000	-1000000	
2.200	0.07005	128.62	-0.2135	300.15	-1000000	-1000000	-1000000	-1000000	
2.220	0.07002	129.41	-0.2135	300.15	-1000000	-1000000	-1000000	-1000000	
2.240	0.07001	129.75	-0.2135	300.13	-1000000	-1000000	-1000000	-1000000	
2.260	0.06997	129.83	-0.2135	300.11	-1000000	-1000000	-1000000	-1000000	
2.280	0.06997	129.85	-0.2135	300.13	-1000000	-1000000	-1000000	-1000000	
2.300	0.06999	129.80	-0.2136	300.15	-1000000	-1000000	-1000000	-1000000	
2.320	0.07001	129.37	-0.2135	300.14	-1000000	-1000000	-1000000	-1000000	
2.340	0.07007	128.56	-0.2135	300.12	-1000000	-1000000	-1000000	-1000000	
2.360	0.07010	128.09	-0.2135	300.12	-1000000	-1000000	-1000000	-1000000	
2.380	0.07010	128.04	-0.2135	300.14	-1000000	-1000000	-1000000	-1000000	
2.400	0.07010	127.89	-0.2135	300.15	-1000000	-1000000	-1000000	-1000000	
2.420	0.07013	127.80	-0.2135	300.14	-1000000	-1000000	-1000000	-1000000	
2.440	0.07014	127.90	-0.2133	300.12	-1000000	-1000000	-1000000	-1000000	
2.460	0.07011	127.96	-0.2130	300.13	-1000000	-1000000	-1000000	-1000000	
2.480	0.07010	127.88	-0.2128	300.14	-1000000	-1000000	-1000000	-1000000	
2.500	0.07015	127.81	-0.2129	300.14	-1000000	-1000000	-1000000	-1000000	
2.520	0.07023	127.94	-0.2129	300.12	-1000000	-1000000	-1000000	-1000000	
2.540	0.07026	128.03	-0.2129	300.11	-1000000	-1000000	-1000000	-1000000	
2.560	0.07024	128.70	-0.2130	300.13	-1000000	-1000000	-1000000	-1000000	
2.580	0.07018	129.37	-0.2130	300.15	-1000000	-1000000	-1000000	-1000000	
2.600	0.07015	129.48	-0.2129	300.14	-1000000	-1000000	-1000000	-1000000	
2.620	0.07016	129.53	-0.2128	300.12	-1000000	-1000000	-1000000	-1000000	
2.640	0.07019	128.84	-0.2128	300.12	-1000000	-1000000	-1000000	-1000000	
2.660	0.07023	128.14	-0.2128	300.14	-1000000	-1000000	-1000000	-1000000	
2.680	0.07025	128.01	-0.2128	300.15	-1000000	-1000000	-1000000	-1000000	
2.700	0.07027	128.29	-0.2129	300.13	-1000000	-1000000	-1000000	-1000000	
2.720	0.07027	129.01	-0.2128	300.11	-1000000	-1000000	-1000000	-1000000	
2.740	0.07028	129.58	-0.2127	300.12	-1000000	-1000000	-1000000	-1000000	
2.760	0.07028	129.78	-0.2124	300.14	-1000000	-1000000	-1000000	-1000000	
2.780	0.07025	129.36	-0.2122	300.14	-1000000	-1000000	-1000000	-1000000	
2.800	0.07021	128.46	-0.2122	300.12	-1000000	-1000000	-1000000	-1000000	
2.820	0.07027	128.09	-0.2122	300.11	-1000000	-1000000	-1000000	-1000000	
2.840	0.07030	128.16	-0.2121	300.13	-1000000	-1000000	-1000000	-1000000	
2.860	0.07032	128.29	-0.2121	300.14	-1000000	-1000000	-1000000	-1000000	
2.880	0.07037	128.11	-0.2121	300.13	-1000000	-1000000	-1000000	-1000000	
2.900	0.07039	127.91	-0.2121	300.12	-1000000	-1000000	-1000000	-1000000	
2.920	0.07037	127.94	-0.2121	300.14	-1000000	-1000000	-1000000	-1000000	
2.940	0.07039	127.93	-0.2121	300.15	-1000000	-1000000	-1000000	-1000000	
2.960	0.07037	128.01	-0.2121	300.15	-1000000	-1000000	-1000000	-1000000	
2.980	0.07036	128.14	-0.2121	300.13	-1000000	-1000000	-1000000	-1000000	
3.000	0.07042	128.51	-0.2122	300.12	-1000000	-1000000	-1000000	-1000000	
3.020	0.07046	128.88	-0.2122	300.13	-1000000	-1000000	-1000000	-1000000	
3.040	0.07043	128.64	-0.2122	300.15	-1000000	-1000000	-1000000	-1000000	
3.060	0.07047	128.19	-0.2121	300.14	-1000000	-1000000	-1000000	-1000000	
3.080	0.07051	128.09	-0.2118	300.12	-1000000	-1000000	-1000000	-1000000	
3.100	0.07049	128.10	-0.2116	300.12	-1000000	-1000000	-1000000	-1000000	
3.120	0.07046	128.03	-0.2115	300.13	-1000000	-1000000	-1000000	-1000000	
3.140	0.07050	127.92	-0.2115	300.15	-1000000	-1000000	-1000000	-1000000	
3.160	0.07056	127.88	-0.2115	300.13	-1000000	-1000000	-1000000	-1000000	
3.180	0.07062	127.89	-0.2116	300.11	-1000000	-1000000	-1000000	-1000000	
3.200	0.07065	127.88	-0.2116	300.13	-1000000	-1000000	-1000000	-1000000	
3.220	0.07066	127.90	-0.2116	300.15	-1000000	-1000000	-1000000	-1000000	
3.240	0.07068	127.97	-0.2116	300.15	-1000000	-1000000	-1000000	-1000000	
3.260	0.07066	127.32	-0.2115	300.12	-1000000	-1000000	-1000000	-1000000	
3.280	0.07066	126.38	-0.2115	300.11	-1000000	-1000000	-1000000	-1000000	
3.300	0.07070	125.35	-0.2115	300.13	-1000000	-1000000	-1000000	-1000000	
3.320	0.07069	124.24	-0.2115	300.15	-1000000	-1000000	-1000000	-1000000	
3.340	0.07070	122.81	-0.2114	300.14	-1000000	-1000000	-1000000	-1000000	
3.360	0.07079	121.24	-0.2111	300.11	-1000000	-1000000	-1000000	-1000000	
3.380	0.07088	119.66	-0.2109	300.12	-1000000	-1000000	-1000000	-1000000	
3.400	0.07096	117.91	-0.2109	300.15	-1000000	-1000000	-1000000	-1000000	
3.420	0.07105	115.17	-0.2108	300.15	-1000000	-1000000	-1000000	-1000000	
3.440	0.07122	110.59	-0.2106	300.14	-1000000	-1000000	-1000000	-1000000	
3.460	0.07155	102.93	-0.2103	300.12	-1000000	-1000000	-1000000	-1000000	
3.480	0.07210	89.01	-0.2102	300.13	-1000000	-1000000	-1000000	-1000000	
3.500	0.07286	64.31	-0.2099	300.15	-1000000	-1000000	-1000000	-1000000	
3.520	0.07375	26.81	-0.2094	300.15	-1000000	-1000000	-1000000	-1000000	
3.540	0.07480	-21.13	-0.2087	300.13	-1000000	-1000000	-1000000	-1000000	
3.560	0.07599	-73.08	-0.2075	300.12	-1000000	-1000000	-1000000	-1000000	
3.580	0.07720	-120.93	-0.2054	300.13	-1000000	-1000000	-1000000	-1000000	
3.600	0.07840	-157.56	-0.2025	300.15	-1000000	-1000000	-1000000	-1000000	
3.620	0.07963	-179.84	-0.1988	300.14	-1000000	-1000000	-1000000	-1000000	
3.640	0.08088	-189.46	-0.1946	300.12	-1000000	-1000000	-1000000	-1000000	
3.660	0.08208	-191.23	-0.1902	300.12	-1000000	-1000000	-1000000	-1000000	
3.680	0.08329	-189.72	-0.1858	300.14	-1000000	-1000000	-1000000	-1000000	
3.700	0.08456	-187.45	-0.1813	300.15	-1000000	-1000000	-1000000	-1000000	
3.720	0.08582	-186.18	-0.1769	300.13	-1000000	-1000000	-1000000	-1000000	
3.740	0.08700	-185.92	-0.1725	300.11	-1000000	-1000000	-1000000	-1000000	
3.760	0.08817	-186.76	-0.1682	300.12	-1000000	-1000000	-1000000	-1000000	
3.780	0.08936	-188.36	-0.1638	300.14	-1000000	-1000000	-1000000	-1000000	
3.800	0.09062	-190.23	-0.1594	300.14	-1000000	-1000000	-1000000	-1000000	
3.820	0.09189	-191.67	-0.1551	300.12	-1000000	-1000000	-1000000	-1000000	
3.840	0.09313	-192.46	-0.1508	300.11	-1000000	-1000000	-1000000	-1000000	
3.860	0.09441	-192.91	-0.1463	300.13	-1000000	-1000000	-1000000	-1000000	
3.880	0.09566	-193.44	-0.1417	300.14	-1000000	-1000000	-1000000	-1000000	
3.900	0.09682	-194.12	-0.1372	300.13	-1000000	-1000000	-1000000	-1000000	
3.920	0.09801	-195.37	-0.1329	300.12	-1000000	-1000000	-1000000	-1000000	
3.940	0.09929	-197.33	-0.1285	300.12	-1000000	-1000000	-1000000	-1000000	
3.960	0.1006	-199.69	-0.1240	300.14	-1000000	-1000000	-1000000	-1000000	
3.980	0.1018	-201.63	-0.1195	300.14	-1000000	-1000000	-1000000	-1000000	
4.000	0.1031	-202.49	-0.1150	300.12	-1000000	-1000000	-1000000	-1000000	
4.020	0.1044	-202.64	-0.1104	300.11	-1000000	-1000000	-1000000	-1000000	
4.040	0.1056	-202.59	-0.1058	300.13	-1000000	-1000000	-1000000	-1000000	
4.060	0.1070	-202.57	-0.1012	300.15	-1000000	-1000000	-1000000	-1000000	
4.080	0.1082	-202.74	-0.09668	300.14	-1000000	-1000000	-1000000	-1000000	
4.100	0.1094	-202.81	-0.09217	300.12	-1000000	-1000000	-1000000	-1000000	
4.120	0.1106	-203.42	-0.08752	300.12	-1000000	-1000000	-1000000	-1000000	
4.140	0.1119	-204.22	-0.08285	300.14	-1000000	-1000000	-1000000	-1000000	
4.160	0.1132	-204.44	-0.07827	300.15	-1000000	-1000000	-1000000	-1000000	
4.180	0.1146	-204.41	-0.07366	300.13	-1000000	-1000000	-1000000	-1000000	
4.200	0.1158	-204.77	-0.06898	300.11	-1000000	-1000000	-1000000	-1000000	
4.220	0.1171	-205.92	-0.06445	300.12	-1000000	-1000000	-1000000	-1000000	
4.240	0.1184	-207.48	-0.05985	300.14	-1000000	-1000000	-1000000	-1000000	
4.260	0.1196	-208.81	-0.05524	300.14	-1000000	-1000000	-1000000	-1000000	
4.280	0.1208	-209.86	-0.05073	300.12	-1000000	-1000000	-1000000	-1000000	
4.300	0.1221	-210.69	-0.04616	300.12	-1000000	-1000000	-1000000	-1000000	
4.320	0.1234	-210.95	-0.04142	300.13	-1000000	-1000000	-1000000	-1000000	
4.340	0.1247	-210.44	-0.03677	300.15	-1000000	-1000000	-1000000	-1000000	
4.360	0.1260	-210.43	-0.03217	300.14	-1000000	-1000000	-1000000	-1000000	
4.380	0.1273	-210.85	-0.02755	300.12	-1000000	-1000000	-1000000	-1000000	
4.400	0.1285	-211.02	-0.02287	300.12	-1000000	-1000000	-1000000	-1000000	
4.420	0.1298	-210.87	-0.01817	300.14	-1000000	-1000000	-1000000	-1000000	
4.440	0.1311	-210.44	-0.01341	300.15	-1000000	-1000000	-1000000	-1000000	
4.460	0.1324	-209.82	-0.00858	300.13	-1000000	-1000000	-1000000	-1000000	
4.480	0.1337	-209.54	-0.00373	300.11	-1000000	-1000000	-1000000	-1000000	
4.500	0.1350	-209.85	0.00089	300.13	-1000000	-1000000	-1000000	-1000000	
4.520	0.1363	-210.96	0.00543	300.15	-1000000	-1000000	-1000000	-1000000	
4.540	0.1377	-212.11	0.01013	300.14	-1000000	-1000000	-1000000	-1000000	
4.560	0.1390	-212.70	0.01488	300.12	-1000000	-1000000	-1000000	-1000000	
4.580	0.1403	-212.87	0.01964	300.11	-1000000	-1000000	-1000000	-1000000	
4.600	0.1415	-212.87	0.02436	300.13	-1000000	-1000000	-1000000	-1000000	
4.620	0.1428	-212.95	0.02908	300.15	-1000000	-1000000	-1000000	-1000000	
4.640	0.1441	-212.84	0.03376	300.32	-1000000	-1000000	-1000000	-1000000	
4.660	0.1453	-212.80	0.03838	300.62	-1000000	-1000000	-1000000	-1000000	
4.680	0.1466	-212.84	0.04305	301.54	-1000000	-1000000	-1000000	-1000000	
4.700	0.1479	-212.84	0.04782	303.57	-1000000	-1000000	-1000000	-1000000	
4.720	0.1492	-212.50	0.05259	305.61	-1000000	-1000000	-1000000	-1000000	
4.740	0.1505	-211.82	0.05741	307.56	-1000000	-1000000	-1000000	-1000000	
4.760	0.1517	-211.35	0.06218	310.20	-1000000	-1000000	-1000000	-1000000	
4.780	0.1529	-211.36	0.06693	312.75	-1000000	-1000000	-1000000	-1000000	
4.800	0.1542	-211.97	0.07164	315.35	-1000000	-1000000	-1000000	-1000000	
4.820	0.1553	-211.26	0.07623	317.56	-1000000	-1000000	-1000000	-1000000	
4.840	0.1562	-204.58	0.08083	319.08	-1000000	-1000000	-1000000	-1000000	
4.860	0.1568	-186.07	0.08548	320.15	-1000000	-1000000	-1000000	-1000000	
4.880	0.1573	-151.34	0.09018	320.91	-1000000	-1000000	-1000000	-1000000	
4.900	0.1577	-101.70	0.09481	321.76	-1000000	-1000000	-1000000	-1000000	
4.920	0.1578	-43.09	0.09896	322.32	-1000000	-1000000	-1000000	-1000000	
4.940	0.1579	15.86	0.1024	322.60	-1000000	-1000000	-1000000	-1000000	
4.960	0.1579	65.62	0.1047	322.86	-1000000	-1000000	-1000000	-1000000	
4.980	0.1578	100.50	0.1060	323.08	-1000000	-1000000	-1000000	-1000000	
5.000	0.1578	120.71	0.1067	322.70	-1000000	-1000000	-1000000	-1000000	
5.020	0.1579	130.38	0.1069	322.21	-1000000	-1000000	-1000000	-1000000	
5.040	0.1579	134.73	0.1068	321.81	-1000000	-1000000	-1000000	-1000000	
5.060	0.1579	136.12	0.1068	321.16	-1000000	-1000000	-1000000	-1000000	
5.080	0.1579	135.53	0.1069	321.13	-1000000	-1000000	-1000000	-1000000	
5.100	0.1579	134.85	0.1070	321.64	-1000000	-1000000	-1000000	-1000000	
5.120	0.1579	134.79	0.1069	321.93	-1000000	-1000000	-1000000	-1000000	
5.140	0.1579	134.81	0.1069	321.86	-1000000	-1000000	-1000000	-1000000	
5.160	0.1579	135.14	0.1069	321.64	-1000000	-1000000	-1000000	-1000000	
5.180	0.1578	135.81	0.1069	321.33	-1000000	-1000000	-1000000	-1000000	
5.200	0.1578	136.36	0.1069	320.96	-1000000	-1000000	-1000000	-1000000	
5.220	0.1579	136.95	0.1068	320.75	-1000000	-1000000	-1000000	-1000000	
5.240	0.1579	137.67	0.1066	320.57	-1000000	-1000000	-1000000	-1000000	
5.260	0.1579	137.97	0.1063	320.50	-1000000	-1000000	-1000000	-1000000	
5.280	0.1578	138.39	0.1062	320.81	-1000000	-1000000	-1000000	-1000000	
5.300	0.1578	139.13	0.1062	321.06	-1000000	-1000000	-1000000	-1000000	
5.320	0.1578	139.57	0.1062	320.63	-1000000	-1000000	-1000000	-1000000	
5.340	0.1579	140.12	0.1062	320.38	-1000000	-1000000	-1000000	-1000000	
5.360	0.1579	140.95	0.1062	320.06	-1000000	-1000000	-1000000	-1000000	
5.380	0.1579	141.50	0.1060	319.78	-1000000	-1000000	-1000000	-1000000	
5.400	0.1578	142.24	0.1057	320.10	-1000000	-1000000	-1000000	-1000000	
5.420	0.1578	142.95	0.1055	320.44	-1000000	-1000000	-1000000	-1000000	
5.440	0.1578	143.15	0.1055	320.34	-1000000	-1000000	-1000000	-1000000	
5.460	0.1578	143.07	0.1055	320.57	-1000000	-1000000	-1000000	-1000000	
5.480	0.1577	142.94	0.1054	320.75	-1000000	-1000000	-1000000	-1000000	
5.500	0.1577	142.24	0.1051	320.34	-1000000	-1000000	-1000000	-1000000	
5.520	0.1577	141.51	0.1049	319.81	-1000000	-1000000	-1000000	-1000000	
5.540	0.1577	140.57	0.1049	319.71	-1000000	-1000000	-1000000	-1000000	
5.560	0.1578	139.37	0.1048	319.79	-1000000	-1000000	-1000000	-1000000	
5.580	0.1578	138.05	0.1047	319.98	-1000000	-1000000	-1000000	-1000000	
5.600	0.1578	136.46	0.1044	319.97	-1000000	-1000000	-1000000	-1000000	
5.620	0.1578	134.42	0.1043	319.87	-1000000	-1000000	-1000000	-1000000	
5.640	0.1578	131.87	0.1042	320.30	-1000000	-1000000	-1000000	-1000000	
5.660	0.1579	128.03	0.1042	320.91	-1000000	-1000000	-1000000	-1000000	
5.680	0.1580	122.33	0.1043	321.09	-1000000	-1000000	-1000000	-1000000	
5.700	0.1581	113.37	0.1043	321.18	-1000000	-1000000	-1000000	-1000000	
5.720	0.1583	99.01	0.1043	321.52	-1000000	-1000000	-1000000	-1000000	
5.740	0.1587	77.57	0.1044	322.14	-1000000	-1000000	-1000000	-1000000	
5.760	0.1589	50.96	0.1047	322.68	-1000000	-1000000	-1000000	-1000000	
5.780	0.1592	24.73	0.1053	323.36	-1000000	-1000000	-1000000	-1000000	
5.800	0.1596	7.315	0.1063	324.29	-1000000	-1000000	-1000000	-1000000	
5.820	0.1598	4.945	0.1078	324.72	-1000000	-1000000	-1000000	-1000000	
5.840	0.1599	18.64	0.1097	324.76	-1000000	-1000000	-1000000	-1000000	
5.860	0.1600	44.62	0.1118	324.93	-1000000	-1000000	-1000000	-1000000	
5.880	0.1601	74.77	0.1136	325.15	-1000000	-1000000	-1000000	-1000000	
5.900	0.1602	101.28	0.1148	325.27	-1000000	-1000000	-1000000	-1000000	
5.920	0.1603	119.69	0.1154	325.55	-1000000	-1000000	-1000000	-1000000	
5.940	0.1603	129.82	0.1156	325.58	-1000000	-1000000	-1000000	-1000000	
5.960	0.1603	133.77	0.1156	325.81	-1000000	-1000000	-1000000	-1000000	
5.980	0.1603	134.32	0.1156	326.18	-1000000	-1000000	-1000000	-1000000	
6.000	0.1603	133.27	0.1157	326.27	-1000000	-1000000	-1000000	-1000000	
6.020	0.1603	131.53	0.1157	326.02	-1000000	-1000000	-1000000	-1000000	
6.040	0.1603	129.60	0.1156	325.81	-1000000	-1000000	-1000000	-1000000	
6.060	0.1603	127.52	0.1156	326.21	-1000000	-1000000	-1000000	-1000000	
6.080	0.1603	125.20	0.1155	326.36	-1000000	-1000000	-1000000	-1000000	
6.100	0.1605	122.41	0.1155	326.60	-1000000	-1000000	-1000000	-1000000	
6.120	0.1606	118.81	0.1156	327.04	-1000000	-1000000	-1000000	-1000000	
6.140	0.1606	114.58	0.1156	327.25	-1000000	-1000000	-1000000	-1000000	
6.160	0.1606	110.71	0.1158	327.03	-1000000	-1000000	-1000000	-1000000	
6.180	0.1607	107.86	0.1162	327.32	-1000000	-1000000	-1000000	-1000000	
6.200	0.1608	106.22	0.1163	327.75	-1000000	-1000000	-1000000	-1000000	
6.220	0.1609	105.26	0.1166	327.97	-1000000	-1000000	-1000000	-1000000	
6.240	0.1610	104.87	0.1169	328.10	-1000000	-1000000	-1000000	-1000000	
6.260	0.1611	105.49	0.1172	328.57	-1000000	-1000000	-1000000	-1000000	
6.280	0.1612	106.50	0.1177	328.65	-1000000	-1000000	-1000000	-1000000	
6.300	0.1612	107.86	0.1181	328.53	-1000000	-1000000	-1000000	-1000000	
6.320	0.1613	109.51	0.1183	328.58	-1000000	-1000000	-1000000	-1000000	
6.340	0.1613	110.92	0.1186	328.98	-1000000	-1000000	-1000000	-1000000	
6.360	0.1613	112.09	0.1188	329.33	-1000000	-1000000	-1000000	-1000000	
6.380	0.1614	113.28	0.1190	329.53	-1000000	-1000000	-1000000	-1000000	
6.400	0.1615	114.38	0.1193	329.23	-1000000	-1000000	-1000000	-1000000	
6.420	0.1616	114.99	0.1196	328.94	-1000000	-1000000	-1000000	-1000000	
6.440	0.1617	115.63	0.1200	329.16	-1000000	-1000000	-1000000	-1000000	
6.460	0.1617	116.11	0.1202	329.69	-1000000	-1000000	-1000000	-1000000	
6.480	0.1617	116.01	0.1203	329.88	-1000000	-1000000	-1000000	-1000000	
6.500	0.1618	114.69	0.1206	330.07	-1000000	-1000000	-1000000	-1000000	
6.520	0.1618	112.78	0.1209	330.58	-1000000	-1000000	-1000000	-1000000	
6.540	0.1619	110.13	0.1210	331.05	-1000000	-1000000	-1000000	-1000000	
6.560	0.1620	107.06	0.1212	331.23	-1000000	-1000000	-1000000	-1000000	
6.580	0.1622	104.39	0.1214	331.28	-1000000	-1000000	-1000000	-1000000	
6.600	0.1624	103.09	0.1217	331.28	-1000000	-1000000	-1000000	-1000000	
6.620	0.1624	103.34	0.1221	331.40	-1000000	-1000000	-1000000	-1000000	
6.640	0.1624	105.36	0.1225	331.49	-1000000	-1000000	-1000000	-1000000	
6.660	0.1625	108.52	0.1230	331.66	-1000000	-1000000	-1000000	-1000000	
6.680	0.1625	111.88	0.1234	331.79	-1000000	-1000000	-1000000	-1000000	
6.700	0.1626	114.74	0.1236	332.16	-1000000	-1000000	-1000000	-1000000	
6.720	0.1627	116.82	0.1239	332.44	-1000000	-1000000	-1000000	-1000000	
6.740	0.1628	117.90	0.1241	332.71	-1000000	-1000000	-1000000	-1000000	
6.760	0.1628	117.74	0.1242	333.03	-1000000	-1000000	-1000000	-1000000	
6.780	0.1629	116.34	0.1243	333.50	-1000000	-1000000	-1000000	-1000000	
6.800	0.1629	113.74	0.1245	333.66	-1000000	-1000000	-1000000	-1000000	
6.820	0.1629	110.66	0.1248	333.65	-1000000	-1000000	-1000000	-1000000	
6.840	0.1630	108.06	0.1251	333.67	-1000000	-1000000	-1000000	-1000000	
6.860	0.1631	106.23	0.1254	334.05	-1000000	-1000000	-1000000	-1000000	
6.880	0.1632	105.76	0.1257	334.34	-1000000	-1000000	-1000000	-1000000	
6.900	0.1633	106.83	0.1261	334.64	-1000000	-1000000	-1000000	-1000000	
6.920	0.1634	109.00	0.1264	334.96	-1000000	-1000000	-1000000	-1000000	
6.940	0.1634	111.68	0.1267	335.29	-1000000	-1000000	-1000000	-1000000	
6.960	0.1635	114.02	0.1270	335.33	-1000000	-1000000	-1000000	-1000000	
6.980	0.1635	115.61	0.1272	335.14	-1000000	-1000000	-1000000	-1000000	
7.000	0.1636	116.23	0.1275	335.06	-1000000	-1000000	-1000000	-1000000	
7.020	0.1636	116.18	0.1276	335.26	-1000000	-1000000	-1000000	-1000000	
7.040	0.1637	116.16	0.1277	335.44	-1000000	-1000000	-1000000	-1000000	
7.060	0.1638	116.23	0.1280	335.45	-1000000	-1000000	-1000000	-1000000	
7.080	0.1638	116.24	0.1283	335.69	-1000000	-1000000	-1000000	-1000000	
7.100	0.1639	116.15	0.1284	335.93	-1000000	-1000000	-1000000	-1000000	
7.120	0.1640	115.69	0.1286	336.27	-1000000	-1000000	-1000000	-1000000	
7.140	0.1640	114.63	0.1288	336.43	-1000000	-1000000	-1000000	-1000000	
7.160	0.1641	112.85	0.1290	336.39	-1000000	-1000000	-1000000	-1000000	
7.180	0.1641	110.32	0.1292	336.34	-1000000	-1000000	-1000000	-1000000	
7.200	0.1643	107.33	0.1294	336.34	-1000000	-1000000	-1000000	-1000000	
7.220	0.1643	105.04	0.1296	336.62	-1000000	-1000000	-1000000	-1000000	
7.240	0.1644	103.78	0.1299	337.41	-1000000	-1000000	-1000000	-1000000	
7.260	0.1646	103.06	0.1303	338.03	-1000000	-1000000	-1000000	-1000000	
7.280	0.1647	102.28	0.1308	338.20	-1000000	-1000000	-1000000	-1000000	
7.300	0.1648	101.18	0.1312	338.18	-1000000	-1000000	-1000000	-1000000	
7.320	0.1649	100.08	0.1316	338.34	-1000000	-1000000	-1000000	-1000000	
7.340	0.1649	99.55	0.1320	338.57	-1000000	-1000000	-1000000	-1000000	
7.360	0.1650	99.94	0.1324	338.96	-1000000	-1000000	-1000000	-1000000	
7.380	0.1651	101.77	0.1327	339.54	-1000000	-1000000	-1000000	-1000000	
7.400	0.1652	104.80	0.1331	340.12	-1000000	-1000000	-1000000	-1000000	
7.420	0.1653	108.17	0.1336	340.27	-1000000	-1000000	-1000000	-1000000	
7.440	0.1653	111.45	0.1340	340.05	-1000000	-1000000	-1000000	-1000000	
7.460	0.1654	114.05	0.1343	340.12	-1000000	-1000000	-1000000	-1000000	
7.480	0.1654	115.48	0.1345	340.28	-1000000	-1000000	-1000000	-1000000	
7.500	0.1655	116.00	0.1346	340.53	-1000000	-1000000	-1000000	-1000000	
7.520	0.1655	116.24	0.1349	340.96	-1000000	-1000000	-1000000	-1000000	
7.540	0.1655	117.04	0.1350	341.11	-1000000	-1000000	-1000000	-1000000	
7.560	0.1655	118.56	0.1351	341.19	-1000000	-1000000	-1000000	-1000000	
7.580	0.1655	120.17	0.1354	341.06	-1000000	-1000000	-1000000	-1000000	
7.600	0.1656	120.91	0.1357	341.09	-1000000	-1000000	-1000000	-1000000	
7.620	0.1657	120.95	0.1358	341.29	-1000000	-1000000	-1000000	-1000000	
7.640	0.1658	121.02	0.1358	341.44	-1000000	-1000000	-1000000	-1000000	
7.660	0.1658	120.72	0.1357	341.69	-1000000	-1000000	-1000000	-1000000	
7.680	0.1659	119.76	0.1359	341.83	-1000000	-1000000	-1000000	-1000000	
7.700	0.1659	118.16	0.1362	341.98	-1000000	-1000000	-1000000	-1000000	
7.720	0.1659	115.98	0.1364	342.13	-1000000	-1000000	-1000000	-1000000	
7.740	0.1660	113.08	0.1364	342.33	-1000000	-1000000	-1000000	-1000000	
7.760	0.1662	109.35	0.1366	342.56	-1000000	-1000000	-1000000	-1000000	
7.780	0.1663	105.88	0.1369	342.68	-1000000	-1000000	-1000000	-1000000	
7.800	0.1664	103.40	0.1371	342.71	-1000000	-1000000	-1000000	-1000000	
7.820	0.1664	102.02	0.1375	343.04	-1000000	-1000000	-1000000	-1000000	
7.840	0.1665	102.28	0.1378	343.42	-1000000	-1000000	-1000000	-1000000	
7.860	0.1666	103.74	0.1382	343.64	-1000000	-1000000	-1000000	-1000000	
7.880	0.1666	105.78	0.1386	343.78	-1000000	-1000000	-1000000	-1000000	
7.900	0.1667	107.46	0.1389	343.94	-1000000	-1000000	-1000000	-1000000	
7.920	0.1668	108.29	0.1392	344.33	-1000000	-1000000	-1000000	-1000000	
7.940	0.1669	108.32	0.1396	344.82	-1000000	-1000000	-1000000	-1000000	
7.960	0.1670	107.76	0.1398	345.21	-1000000	-1000000	-1000000	-1000000	
7.980	0.1671	106.85	0.1401	345.58	-1000000	-1000000	-1000000	-1000000	
8.000	0.1671	106.36	0.1405	345.70	-1000000	-1000000	-1000000	-1000000	
8.020	0.1671	107.00	0.1407	345.67	-1000000	-1000000	-1000000	-1000000	
8.040	0.1671	108.73	0.1409	345.75	-1000000	-1000000	-1000000	-1000000	
8.060	0.1672	111.07	0.1412	345.90	-1000000	-1000000	-1000000	-1000000	
8.080	0.1673	113.79	0.1416	345.87	-1000000	-1000000	-1000000	-1000000	
8.100	0.1673	116.63	0.1418	346.16	-1000000	-1000000	-1000000	-1000000	
8.120	0.1674	118.72	0.1420	346.19	-1000000	-1000000	-1000000	-1000000	
8.140	0.1674	120.17	0.1424	346.30	-1000000	-1000000	-1000000	-1000000	
8.160	0.1674	121.10	0.1425	346.56	-1000000	-1000000	-1000000	-1000000	
8.180	0.1675	121.35	0.1425	346.89	-1000000	-1000000	-1000000	-1000000	
8.200	0.1675	120.24	0.1425	346.97	-1000000	-1000000	-1000000	-1000000	
8.220	0.1675	117.55	0.1424	347.00	-1000000	-1000000	-1000000	-1000000	
8.240	0.1676	113.87	0.1427	347.27	-1000000	-1000000	-1000000	-1000000	
8.260	0.1677	109.67	0.1430	347.52	-1000000	-1000000	-1000000	-1000000	
8.280	0.1679	106.16	0.1432	347.69	-1000000	-1000000	-1000000	-1000000	
8.300	0.1680	104.02	0.1434	347.87	-1000000	-1000000	-1000000	-1000000	
8.320	0.1681	103.22	0.1437	348.05	-1000000	-1000000	-1000000	-1000000	
8.340	0.1681	103.79	0.1441	348.18	-1000000	-1000000	-1000000	-1000000	
8.360	0.1681	105.18	0.1446	348.13	-1000000	-1000000	-1000000	-1000000	
8.380	0.1682	106.79	0.1450	348.22	-1000000	-1000000	-1000000	-1000000	
8.400	0.1683	108.16	0.1452	348.55	-1000000	-1000000	-1000000	-1000000	
8.420	0.1684	109.04	0.1455	348.91	-1000000	-1000000	-1000000	-1000000	
8.440	0.1685	109.33	0.1457	349.27	-1000000	-1000000	-1000000	-1000000	
8.460	0.1686	109.43	0.1459	349.45	-1000000	-1000000	-1000000	-1000000	
8.480	0.1686	109.45	0.1463	349.61	-1000000	-1000000	-1000000	-1000000	
8.500	0.1686	109.98	0.1465	349.82	-1000000	-1000000	-1000000	-1000000	
8.520	0.1687	110.92	0.1467	350.09	-1000000	-1000000	-1000000	-1000000	
8.540	0.1687	112.00	0.1470	350.18	-1000000	-1000000	-1000000	-1000000	
8.560	0.1687	113.02	0.1473	350.12	-1000000	-1000000	-1000000	-1000000	
8.580	0.1688	114.53	0.1477	350.02	-1000000	-1000000	-1000000	-1000000	
8.600	0.1689	116.64	0.1479	350.20	-1000000	-1000000	-1000000	-1000000	
8.620	0.1689	119.10	0.1479	350.50	-1000000	-1000000	-1000000	-1000000	
8.640	0.1689	121.62	0.1482	350.73	-1000000	-1000000	-1000000	-1000000	
8.660	0.1689	123.95	0.1484	350.91	-1000000	-1000000	-1000000	-1000000	
8.680	0.1689	126.05	0.1485	350.92	-1000000	-1000000	-1000000	-1000000	
8.700	0.1689	127.83	0.1486	350.79	-1000000	-1000000	-1000000	-1000000	
8.720	0.1689	129.46	0.1486	350.81	-1000000	-1000000	-1000000	-1000000	
8.740	0.1689	130.97	0.1486	350.95	-1000000	-1000000	-1000000	-1000000	
8.760	0.1689	132.15	0.1486	351.01	-1000000	-1000000	-1000000	-1000000	
8.780	0.1689	133.24	0.1486	351.12	-1000000	-1000000	-1000000	-1000000	
8.800	0.1690	134.30	0.1485	351.22	-1000000	-1000000	-1000000	-1000000	
8.820	0.1690	135.09	0.1485	351.17	-1000000	-1000000	-1000000	-1000000	
8.840	0.1689	136.00	0.1486	351.12	-1000000	-1000000	-1000000	-1000000	
8.860	0.1689	136.94	0.1486	351.10	-1000000	-1000000	-1000000	-1000000	
8.880	0.1689	137.68	0.1486	351.09	-1000000	-1000000	-1000000	-1000000	
8.900	0.1689	138.34	0.1486	351.25	-1000000	-1000000	-1000000	-1000000	
8.920	0.1689	139.14	0.1486	351.29	-1000000	-1000000	-1000000	-1000000	
8.940	0.1689	140.04	0.1486	351.17	-1000000	-1000000	-1000000	-1000000	
8.960	0.1689	141.11	0.1484	351.24	-1000000	-1000000	-1000000	-1000000	
8.980	0.1690	141.86	0.1481	351.48	-1000000	-1000000	-1000000	-1000000	
9.000	0.1689	142.58	0.1479	351.54	-1000000	-1000000	-1000000	-1000000	
9.020	0.1688	142.92	0.1479	351.28	-1000000	-1000000	-1000000	-1000000	
9.040	0.1688	142.98	0.1479	351.29	-1000000	-1000000	-1000000	-1000000	
9.060	0.1687	143.35	0.1477	351.52	-1000000	-1000000	-1000000	-1000000	
9.080	0.1687	144.10	0.1474	351.51	-1000000	-1000000	-1000000	-1000000	
9.100	0.1688	144.68	0.1472	351.24	-1000000	-1000000	-1000000	-1000000	
9.120	0.1688	144.94	0.1472	351.07	-1000000	-1000000	-1000000	-1000000	
9.140	0.1689	145.02	0.1471	351.09	-1000000	-1000000	-1000000	-1000000	
9.160	0.1688	144.98	0.1468	351.33	-1000000	-1000000	-1000000	-1000000	
9.180	0.1688	144.90	0.1465	351.45	-1000000	-1000000	-1000000	-1000000	
9.200	0.1687	144.50	0.1464	351.42	-1000000	-1000000	-1000000	-1000000	
9.220	0.1687	143.73	0.1461	351.48	-1000000	-1000000	-1000000	-1000000	
9.240	0.1687	143.08	0.1458	351.57	-1000000	-1000000	-1000000	-1000000	
9.260	0.1687	142.56	0.1457	351.48	-1000000	-1000000	-1000000	-1000000	
9.280	0.1687	141.80	0.1457	351.25	-1000000	-1000000	-1000000	-1000000	
9.300	0.1686	141.29	0.1455	351.19	-1000000	-1000000	-1000000	-1000000	
9.320	0.1687	140.93	0.1452	351.12	-1000000	-1000000	-1000000	-1000000	
9.340	0.1687	140.23	0.1452	351.10	-1000000	-1000000	-1000000	-1000000	
9.360	0.1686	139.73	0.1451	351.29	-1000000	-1000000	-1000000	-1000000	
9.380	0.1686	139.11	0.1451	351.51	-1000000	-1000000	-1000000	-1000000	
9.400	0.1685	138.40	0.1449	351.42	-1000000	-1000000	-1000000	-1000000	
9.420	0.1685	138.09	0.1446	351.23	-1000000	-1000000	-1000000	-1000000	
9.440	0.1684	138.04	0.1444	351.15	-1000000	-1000000	-1000000	-1000000	
9.460	0.1685	137.94	0.1444	351.29	-1000000	-1000000	-1000000	-1000000	
9.480	0.1685	137.87	0.1444	351.30	-1000000	-1000000	-1000000	-1000000	
9.500	0.1685	137.85	0.1445	351.39	-1000000	-1000000	-1000000	-1000000	
9.520	0.1684	137.69	0.1444	351.45	-1000000	-1000000	-1000000	-1000000	
9.540	0.1684	137.87	0.1441	351.39	-1000000	-1000000	-1000000	-1000000	
9.560	0.1684	138.20	0.1438	351.52	-1000000	-1000000	-1000000	-1000000	
9.580	0.1684	138.37	0.1438	351.47	-1000000	-1000000	-1000000	-1000000	
9.600	0.1683	138.33	0.1439	351.32	-1000000	-1000000	-1000000	-1000000	
9.620	0.1683	138.36	0.1439	351.32	-1000000	-1000000	-1000000	-1000000	
9.640	0.1684	138.28	0.1439	351.45	-1000000	-1000000	-1000000	-1000000	
9.660	0.1684	138.07	0.1438	351.63	-1000000	-1000000	-1000000	-1000000	
9.680	0.1684	137.87	0.1438	351.52	-1000000	-1000000	-1000000	-1000000	
9.700	0.1683	137.26	0.1435	351.21	-1000000	-1000000	-1000000	-1000000	
9.720	0.1683	136.66	0.1432	351.04	-1000000	-1000000	-1000000	-1000000	
9.740	0.1683	136.38	0.1431	351.42	-1000000	-1000000	-1000000	-1000000	
9.760	0.1682	136.35	0.1431	351.70	-1000000	-1000000	-1000000	-1000000	
9.780	0.1683	136.41	0.1431	351.72	-1000000	-1000000	-1000000	-1000000	
9.800	0.1683	136.40	0.1431	351.66	-1000000	-1000000	-1000000	-1000000	
9.820	0.1682	136.34	0.1432	351.50	-1000000	-1000000	-1000000	-1000000	
9.840	0.1682	136.29	0.1431	351.41	-1000000	-1000000	-1000000	-1000000	
9.860	0.1682	136.20	0.1428	351.36	-1000000	-1000000	-1000000	-1000000	
9.880	0.1681	136.19	0.1425	351.43	-1000000	-1000000	-1000000	-1000000	
9.900	0.1681	136.39	0.1424	351.49	-1000000	-1000000	-1000000	-1000000	
9.920	0.1681	136.53	0.1424	351.34	-1000000	-1000000	-1000000	-1000000	
9.940	0.1680	136.61	0.1424	351.41	-1000000	-1000000	-1000000	-1000000	
9.960	0.1680	136.53	0.1424	351.55	-1000000	-1000000	-1000000	-1000000	
9.980	0.1680	136.39	0.1424	351.48	-1000000	-1000000	-1000000	-1000000	
10.00	0.1681	136.56	0.1423	351.46	-1000000	-1000000	-1000000	-1000000	
10.02	0.1681	136.70	0.1421	351.59	-1000000	-1000000	-1000000	-1000000	
10.04	0.1680	136.62	0.1418	351.72	-1000000	-1000000	-1000000	-1000000	
10.06	0.1680	136.52	0.1417	351.53	-1000000	-1000000	-1000000	-1000000	
10.08	0.1680	136.41	0.1417	351.28	-1000000	-1000000	-1000000	-1000000	
10.10	0.1679	136.27	0.1418	351.39	-1000000	-1000000	-1000000	-1000000	
10.12	0.1680	136.30	0.1418	351.71	-1000000	-1000000	-1000000	-1000000	
10.14	0.1679	136.46	0.1418	351.76	-1000000	-1000000	-1000000	-1000000	
10.16	0.1679	136.39	0.1418	351.63	-1000000	-1000000	-1000000	-1000000	
10.18	0.1679	136.20	0.1417	351.51	-1000000	-1000000	-1000000	-1000000	
10.20	0.1679	136.13	0.1415	351.48	-1000000	-1000000	-1000000	-1000000	
10.22	0.1679	136.30	0.1412	351.34	-1000000	-1000000	-1000000	-1000000	
10.24	0.1679	136.59	0.1411	351.25	-1000000	-1000000	-1000000	-1000000	
10.26	0.1678	136.69	0.1410	351.46	-1000000	-1000000	-1000000	-1000000	
10.28	0.1678	136.58	0.1410	351.62	-1000000	-1000000	-1000000	-1000000	
10.30	0.1678	136.55	0.1411	351.41	-1000000	-1000000	-1000000	-1000000	
10.32	0.1679	136.53	0.1411	351.20	-1000000	-1000000	-1000000	-1000000	
10.34	0.1679	136.61	0.1410	351.37	-1000000	-1000000	-1000000	-1000000	
10.36	0.1679	136.66	0.1410	351.59	-1000000	-1000000	-1000000	-1000000	
10.38	0.1678	136.47	0.1408	351.60	-1000000	-1000000	-1000000	-1000000	
10.40	0.1677	136.27	0.1405	351.55	-1000000	-1000000	-1000000	-1000000	
10.42	0.1677	136.35	0.1405	351.46	-1000000	-1000000	-1000000	-1000000	
10.44	0.1677	136.52	0.1404	351.42	-1000000	-1000000	-1000000	-1000000	
10.46	0.1677	136.50	0.1404	351.21	-1000000	-1000000	-1000000	-1000000	
10.48	0.1677	136.37	0.1404	351.23	-1000000	-1000000	-1000000	-1000000	
10.50	0.1677	136.30	0.1404	351.38	-1000000	-1000000	-1000000	-1000000	
10.52	0.1677	136.33	0.1405	351.69	-1000000	-1000000	-1000000	-1000000	
10.54	0.1677	136.43	0.1405	351.49	-1000000	-1000000	-1000000	-1000000	
10.56	0.1676	136.40	0.1403	351.25	-1000000	-1000000	-1000000	-1000000	
10.58	0.1676	136.19	0.1400	351.31	-1000000	-1000000	-1000000	-1000000	
10.60	0.1676	136.31	0.1398	351.43	-1000000	-1000000	-1000000	-1000000	
10.62	0.1675	136.39	0.1397	351.55	-1000000	-1000000	-1000000	-1000000	
10.64	0.1675	136.40	0.1398	351.72	-1000000	-1000000	-1000000	-1000000	
10.66	0.1676	136.49	0.1398	351.68	-1000000	-1000000	-1000000	-1000000	
10.68	0.1676	136.44	0.1398	351.63	-1000000	-1000000	-1000000	-1000000	
10.70	0.1676	136.30	0.1398	351.50	-1000000	-1000000	-1000000	-1000000	
10.72	0.1676	136.14	0.1398	351.25	-1000000	-1000000	-1000000	-1000000	
10.74	0.1675	136.19	0.1396	351.11	-1000000	-1000000	-1000000	-1000000	
10.76	0.1674	136.26	0.1393	351.14	-1000000	-1000000	-1000000	-1000000	
10.78	0.1674	136.28	0.1391	351.30	-1000000	-1000000	-1000000	-1000000	
10.80	0.1674	136.23	0.1391	351.28	-1000000	-1000000	-1000000	-1000000	
10.82	0.1675	136.19	0.1391	351.17	-1000000	-1000000	-1000000	-1000000	
10.84	0.1675	136.25	0.1391	351.15	-1000000	-1000000	-1000000	-1000000	
10.86	0.1675	136.38	0.1391	351.35	-1000000	-1000000	-1000000	-1000000	
10.88	0.1674	136.60	0.1391	351.39	-1000000	-1000000	-1000000	-1000000	
10.90	0.1674	136.64	0.1391	351.29	-1000000	-1000000	-1000000	-1000000	
10.92	0.1674	136.27	0.1390	351.28	-1000000	-1000000	-1000000	-1000000	
10.94	0.1674	135.69	0.1388	351.28	-1000000	-1000000	-1000000	-1000000	
10.96	0.1674	135.18	0.1385	351.36	-1000000	-1000000	-1000000	-1000000	
10.98	0.1674	134.91	0.1384	351.18	-1000000	-1000000	-1000000	-1000000	
11.00	0.1674	134.90	0.1384	351.22	-1000000	-1000000	-1000000	-1000000	
11.02	0.1673	135.38	0.1384	351.42	-1000000	-1000000	-1000000	-1000000	
11.04	0.1673	136.03	0.1385	351.54	-1000000	-1000000	-1000000	-1000000	
11.06	0.1673	136.28	0.1385	351.46	-1000000	-1000000	-1000000	-1000000	
11.08	0.1672	136.32	0.1384	351.33	-1000000	-1000000	-1000000	-1000000	
11.10	0.1672	136.49	0.1383	351.21	-1000000	-1000000	-1000000	-1000000	
11.12	0.1673	136.52	0.1384	351.20	-1000000	-1000000	-1000000	-1000000	
11.14	0.1673	136.71	0.1383	351.21	-1000000	-1000000	-1000000	-1000000	
11.16	0.1673	136.77	0.1381	351.29	-1000000	-1000000	-1000000	-1000000	
11.18	0.1673	136.29	0.1379	351.03	-1000000	-1000000	-1000000	-1000000	
11.20	0.1672	135.41	0.1379	350.91	-1000000	-1000000	-1000000	-1000000	
11.22	0.1671	134.90	0.1378	351.06	-1000000	-1000000	-1000000	-1000000	
11.24	0.1671	135.02	0.1378	351.25	-1000000	-1000000	-1000000	-1000000	
11.26	0.1671	135.08	0.1378	351.36	-1000000	-1000000	-1000000	-1000000	
11.28	0.1671	134.75	0.1378	351.25	-1000000	-1000000	-1000000	-1000000	
11.30	0.1670	134.69	0.1377	351.11	-1000000	-1000000	-1000000	-1000000	
11.32	0.1670	134.87	0.1377	351.03	-1000000	-1000000	-1000000	-1000000	
11.34	0.1670	134.79	0.1377	351.18	-1000000	-1000000	-1000000	-1000000	
11.36	0.1671	135.12	0.1374	351.39	-1000000	-1000000	-1000000	-1000000	
11.38	0.1670	136.01	0.1372	351.31	-1000000	-1000000	-1000000	-1000000	
11.40	0.1670	136.44	0.1371	351.10	-1000000	-1000000	-1000000	-1000000	
11.42	0.1670	136.46	0.1371	350.92	-1000000	-1000000	-1000000	-1000000	
11.44	0.1670	136.50	0.1371	350.82	-1000000	-1000000	-1000000	-1000000	
11.46	0.1670	136.55	0.1371	350.77	-1000000	-1000000	-1000000	-1000000	
11.48	0.1670	136.51	0.1371	350.79	-1000000	-1000000	-1000000	-1000000	
11.50	0.1669	136.52	0.1371	350.94	-1000000	-1000000	-1000000	-1000000	
11.52	0.1670	136.61	0.1371	351.21	-1000000	-1000000	-1000000	-1000000	
11.54	0.1670	136.77	0.1370	351.18	-1000000	-1000000	-1000000	-1000000	
11.56	0.1669	136.76	0.1370	350.84	-1000000	-1000000	-1000000	-1000000	
11.58	0.1669	136.42	0.1367	350.65	-1000000	-1000000	-1000000	-1000000	
11.60	0.1668	135.84	0.1365	351.00	-1000000	-1000000	-1000000	-1000000	
11.62	0.1668	135.22	0.1364	351.41	-1000000	-1000000	-1000000	-1000000	
11.64	0.1668	135.25	0.1364	351.40	-1000000	-1000000	-1000000	-1000000	
11.66	0.1668	135.14	0.1364	351.26	-1000000	-1000000	-1000000	-1000000	
11.68	0.1669	134.97	0.1365	351.07	-1000000	-1000000	-1000000	-1000000	
11.70	0.1669	134.94	0.1366	350.94	-1000000	-1000000	-1000000	-1000000	
11.72	0.1668	135.00	0.1364	351.01	-1000000	-1000000	-1000000	-1000000	
11.74	0.1668	135.01	0.1364	350.93	-1000000	-1000000	-1000000	-1000000	
11.76	0.1667	134.81	0.1364	350.82	-1000000	-1000000	-1000000	-1000000	
11.78	0.1667	134.61	0.1364	350.71	-1000000	-1000000	-1000000	-1000000	
11.80	0.1667	134.63	0.1362	350.82	-1000000	-1000000	-1000000	-1000000	
11.82	0.1667	134.85	0.1359	350.93	-1000000	-1000000	-1000000	-1000000	
11.84	0.1667	135.48	0.1358	350.92	-1000000	-1000000	-1000000	-1000000	
11.86	0.1668	136.15	0.1358	350.85	-1000000	-1000000	-1000000	-1000000	
11.88	0.1668	136.43	0.1357	350.87	-1000000	-1000000	-1000000	-1000000	
11.90	0.1667	136.52	0.1357	350.83	-1000000	-1000000	-1000000	-1000000	
11.92	0.1666	136.42	0.1357	350.74	-1000000	-1000000	-1000000	-1000000	
11.94	0.1666	136.35	0.1357	350.81	-1000000	-1000000	-1000000	-1000000	
11.96	0.1665	136.56	0.1959	350.66	-1000000	-1000000	-1000000	-1000000	
11.98	0.1665	136.29	0.5909	350.52	-1000000	-1000000	-1000000	-1000000	
12.00	0.1665	135.48	0.9920	350.64	-1000000	-1000000	-1000000	-1000000	
12.02	0.1665	134.96	1.147	350.61	-1000000	-1000000	-1000000	-1000000	
12.04	0.1665	134.81	1.162	350.58	-1000000	-1000000	-1000000	-1000000	
12.06	0.1665	134.83	1.155	350.70	-1000000	-1000000	-1000000	-1000000	
12.08	0.1665	134.79	1.153	350.90	-1000000	-1000000	-1000000	-1000000	
12.10	0.1665	134.80	1.153	350.97	-1000000	-1000000	-1000000	-1000000	
12.12	0.1665	134.84	1.154	350.99	-1000000	-1000000	-1000000	-1000000	
12.14	0.1664	134.88	1.154	350.98	-1000000	-1000000	-1000000	-1000000	
12.16	0.1664	134.82	1.154	350.87	-1000000	-1000000	-1000000	-1000000	
12.18	0.1665	135.03	1.154	350.61	-1000000	-1000000	-1000000	-1000000	
12.20	0.1665	135.79	1.153	350.65	-1000000	-1000000	-1000000	-1000000	
12.22	0.1665	137.02	1.153	350.68	-1000000	-1000000	-1000000	-1000000	
12.24	0.1664	138.65	1.154	350.66	-1000000	-1000000	-1000000	-1000000	
12.26	0.1665	140.97	1.155	350.54	-1000000	-1000000	-1000000	-1000000	
12.28	0.1665	144.64	1.155	350.44	-1000000	-1000000	-1000000	-1000000	
12.30	0.1666	149.84	1.156	350.46	-1000000	-1000000	-1000000	-1000000	
12.32	0.1666	157.01	1.156	350.46	-1000000	-1000000	-1000000	-1000000	
12.34	0.1668	166.53	1.156	350.36	-1000000	-1000000	-1000000	-1000000	
12.36	0.1669	178.70	1.157	350.48	-1000000	-1000000	-1000000	-1000000	
12.38	0.1671	194.18	1.158	350.70	-1000000	-1000000	-1000000	-1000000	
12.40	0.1673	213.02	1.160	350.73	-1000000	-1000000	-1000000	-1000000	
12.42	0.1675	235.90	1.162	350.64	-1000000	-1000000	-1000000	-1000000	
12.44	0.1677	262.94	1.163	350.64	-1000000	-1000000	-1000000	-1000000	
12.46	0.1679	294.01	1.164	350.77	-1000000	-1000000	-1000000	-1000000	
12.48	0.1682	330.13	1.166	350.77	-1000000	-1000000	-1000000	-1000000	
12.50	0.1685	371.55	1.168	350.60	-1000000	-1000000	-1000000	-1000000	
12.52	0.1689	417.70	1.170	350.49	-1000000	-1000000	-1000000	-1000000	
12.54	0.1693	468.07	1.172	350.35	-1000000	-1000000	-1000000	-1000000	
12.56	0.1697	522.71	1.174	350.36	-1000000	-1000000	-1000000	-1000000	
12.58	0.1700	580.61	1.176	350.30	-1000000	-1000000	-1000000	-1000000	
12.60	0.1704	640.57	1.178	350.12	-1000000	-1000000	-1000000	-1000000	
12.62	0.1708	702.53	1.181	350.17	-1000000	-1000000	-1000000	-1000000	
12.64	0.1712	767.48	1.184	350.21	-1000000	-1000000	-1000000	-1000000	
12.66	0.1716	834.75	1.186	350.25	-1000000	-1000000	-1000000	-1000000	
12.68	0.1721	904.30	1.189	350.21	-1000000	-1000000	-1000000	-1000000	
12.70	0.1725	976.49	1.192	350.22	-1000000	-1000000	-1000000	-1000000	
12.72	0.1731	1051.2	1.195	350.25	-1000000	-1000000	-1000000	-1000000	
12.74	0.1736	1128.7	1.199	350.16	-1000000	-1000000	-1000000	-1000000	
12.76	0.1741	1208.9	1.202	349.83	-1000000	-1000000	-1000000	-1000000	
12.78	0.1746	1291.5	1.206	349.75	-1000000	-1000000	-1000000	-1000000	
12.80	0.1751	1376.9	1.209	349.83	-1000000	-1000000	-1000000	-1000000	
12.82	0.1756	1464.9	1.213	349.95	-1000000	-1000000	-1000000	-1000000	
12.84	0.1762	1554.9	1.217	350.02	-1000000	-1000000	-1000000	-1000000	
12.86	0.1768	1647.0	1.221	350.06	-1000000	-1000000	-1000000	-1000000	
12.88	0.1774	1741.3	1.225	350.02	-1000000	-1000000	-1000000	-1000000	
12.90	0.1781	1837.8	1.229	349.71	-1000000	-1000000	-1000000	-1000000	
12.92	0.1788	1936.8	1.233	349.55	-1000000	-1000000	-1000000	-1000000	
12.94	0.1794	2038.1	1.237	349.64	-1000000	-1000000	-1000000	-1000000	
12.96	0.1800	2141.6	1.242	349.90	-1000000	-1000000	-1000000	-1000000	
12.98	0.1807	2247.1	1.247	349.91	-1000000	-1000000	-1000000	-1000000	
13.00	0.1814	2354.6	1.251	349.64	-1000000	-1000000	-1000000	-1000000	
13.02	0.1822	2464.1	1.256	349.72	-1000000	-1000000	-1000000	-1000000	
13.04	0.1831	2575.4	1.261	349.96	-1000000	-1000000	-1000000	-1000000	
13.06	0.1839	2688.4	1.267	349.97	-1000000	-1000000	-1000000	-1000000	
13.08	0.1847	2803.2	1.272	349.77	-1000000	-1000000	-1000000	-1000000	
13.10	0.1855	2919.4	1.277	349.80	-1000000	-1000000	-1000000	-1000000	
13.12	0.1863	3037.0	1.283	349.89	-1000000	-1000000	-1000000	-1000000	
13.14	0.1871	3155.7	1.288	350.05	-1000000	-1000000	-1000000	-1000000	
13.16	0.1880	3275.7	1.294	350.08	-1000000	-1000000	-1000000	-1000000	
13.18	0.1889	3396.1	1.300	350.09	-1000000	-1000000	-1000000	-1000000	
13.20	0.1899	3517.9	1.306	350.26	-1000000	-1000000	-1000000	-1000000	
13.22	0.1909	3641.2	1.312	350.37	-1000000	-1000000	-1000000	-1000000	
13.24	0.1920	3765.5	1.318	350.32	-1000000	-1000000	-1000000	-1000000	
13.26	0.1931	3891.1	1.325	350.46	-1000000	-1000000	-1000000	-1000000	
13.28	0.1942	4017.6	1.331	350.70	-1000000	-1000000	-1000000	-1000000	
13.30	0.1953	4144.9	1.338	350.81	-1000000	-1000000	-1000000	-1000000	
13.32	0.1966	4272.3	1.345	350.60	-1000000	-1000000	-1000000	-1000000	
13.34	0.1979	4399.0	1.351	350.32	-1000000	-1000000	-1000000	-1000000	
13.36	0.1994	4525.8	1.358	350.17	-1000000	-1000000	-1000000	-1000000	
13.38	0.2010	4652.4	1.365	350.22	-1000000	-1000000	-1000000	-1000000	
13.40	0.2028	4778.0	1.372	350.43	-1000000	-1000000	-1000000	-1000000	
13.42	0.2047	4901.6	1.380	350.39	-1000000	-1000000	-1000000	-1000000	
13.44	0.2069	5022.9	1.387	350.24	-1000000	-1000000	-1000000	-1000000	
13.46	0.2095	5140.5	1.395	350.35	-1000000	-1000000	-1000000	-1000000	
13.48	0.2124	5253.1	1.402	350.70	-1000000	-1000000	-1000000	-1000000	
13.50	0.2156	5358.7	1.410	350.70	-1000000	-1000000	-1000000	-1000000	
13.52	0.2192	5456.0	1.418	350.50	-1000000	-1000000	-1000000	-1000000	
13.54	0.2231	5543.9	1.426	350.22	-1000000	-1000000	-1000000	-1000000	
13.56	0.2272	5622.3	1.434	350.05	-1000000	-1000000	-1000000	-1000000	
13.58	0.2313	5691.9	1.442	350.19	-1000000	-1000000	-1000000	-1000000	
13.60	0.2354	5754.3	1.451	350.16	-1000000	-1000000	-1000000	-1000000	
13.62	0.2396	5812.0	1.459	350.03	-1000000	-1000000	-1000000	-1000000	
13.64	0.2438	5865.7	1.468	350.10	-1000000	-1000000	-1000000	-1000000	
13.66	0.2480	5916.8	1.477	350.38	-1000000	-1000000	-1000000	-1000000	
13.68	0.2523	5966.7	1.486	350.51	-1000000	-1000000	-1000000	-1000000	
13.70	0.2566	6015.7	1.495	350.54	-1000000	-1000000	-1000000	-1000000	
13.72	0.2611	6064.0	1.504	350.65	-1000000	-1000000	-1000000	-1000000	
13.74	0.2656	6111.5	1.513	350.54	-1000000	-1000000	-1000000	-1000000	
13.76	0.2701	6158.6	1.522	350.44	-1000000	-1000000	-1000000	-1000000	
13.78	0.2747	6205.1	1.532	350.42	-1000000	-1000000	-1000000	-1000000	
13.80	0.2793	6251.0	1.541	350.31	-1000000	-1000000	-1000000	-1000000	
13.82	0.2840	6296.7	1.551	350.14	-1000000	-1000000	-1000000	-1000000	
13.84	0.2887	6342.4	1.561	350.12	-1000000	-1000000	-1000000	-1000000	
13.86	0.2934	6387.4	1.571	350.17	-1000000	-1000000	-1000000	-1000000	
13.88	0.2983	6431.5	1.581	350.26	-1000000	-1000000	-1000000	-1000000	
13.90	0.3033	6475.3	1.591	350.26	-1000000	-1000000	-1000000	-1000000	
13.92	0.3083	6519.0	1.601	350.24	-1000000	-1000000	-1000000	-1000000	
13.94	0.3134	6562.3	1.612	350.10	-1000000	-1000000	-1000000	-1000000	
13.96	0.3184	6605.2	1.622	350.01	-1000000	-1000000	-1000000	-1000000	
13.98	0.3236	6648.1	1.633	350.08	-1000000	-1000000	-1000000	-1000000	
14.00	0.3288	6690.4	1.644	350.11	-1000000	-1000000	-1000000	-1000000	
14.02	0.3341	6732.0	1.655	350.02	-1000000	-1000000	-1000000	-1000000	
14.04	0.3393	6773.1	1.666	349.98	-1000000	-1000000	-1000000	-1000000	
14.06	0.3446	6813.9	1.677	350.09	-1000000	-1000000	-1000000	-1000000	
14.08	0.3500	6854.7	1.688	350.18	-1000000	-1000000	-1000000	-1000000	
14.10	0.3555	6895.7	1.700	350.14	-1000000	-1000000	-1000000	-1000000	
14.12	0.3610	6936.2	1.711	350.02	-1000000	-1000000	-1000000	-1000000	
14.14	0.3666	6976.4	1.722	350.03	-1000000	-1000000	-1000000	-1000000	
14.16	0.3722	7016.6	1.734	350.11	-1000000	-1000000	-1000000	-1000000	
14.18	0.3778	7056.5	1.746	350.13	-1000000	-1000000	-1000000	-1000000	
14.20	0.3835	7095.5	1.758	350.01	-1000000	-1000000	-1000000	-1000000	
14.22	0.3893	7134.0	1.770	349.87	-1000000	-1000000	-1000000	-1000000	
14.24	0.3952	7172.6	1.782	349.86	-1000000	-1000000	-1000000	-1000000	
14.26	0.4012	7211.7	1.795	349.99	-1000000	-1000000	-1000000	-1000000	
14.28	0.4072	7250.4	1.807	350.03	-1000000	-1000000	-1000000	-1000000	
14.30	0.4132	7288.5	1.820	349.90	-1000000	-1000000	-1000000	-1000000	
14.32	0.4192	7326.0	1.833	349.82	-1000000	-1000000	-1000000	-1000000	
14.34	0.4253	7362.8	1.845	349.96	-1000000	-1000000	-1000000	-1000000	
14.36	0.4315	7399.6	1.858	349.96	-1000000	-1000000	-1000000	-1000000	
14.38	0.4377	7436.6	1.872	349.86	-1000000	-1000000	-1000000	-1000000	
14.40	0.4440	7473.6	1.885	349.75	-1000000	-1000000	-1000000	-1000000	
14.42	0.4503	7510.5	1.898	349.80	-1000000	-1000000	-1000000	-1000000	
14.44	0.4567	7547.0	1.911	349.90	-1000000	-1000000	-1000000	-1000000	
14.46	0.4632	7583.2	1.925	349.87	-1000000	-1000000	-1000000	-1000000	
14.48	0.4697	7619.2	1.939	349.83	-1000000	-1000000	-1000000	-1000000	
14.50	0.4762	7655.1	1.953	349.89	-1000000	-1000000	-1000000	-1000000	
14.52	0.4828	7691.0	1.966	349.74	-1000000	-1000000	-1000000	-1000000	
14.54	0.4895	7726.8	1.980	349.90	-1000000	-1000000	-1000000	-1000000	
14.56	0.4963	7762.4	1.994	350.25	-1000000	-1000000	-1000000	-1000000	
14.58	0.5031	7797.6	2.009	350.38	-1000000	-1000000	-1000000	-1000000	
14.60	0.5099	7832.5	2.023	350.46	-1000000	-1000000	-1000000	-1000000	
14.62	0.5168	7867.0	2.038	350.24	-1000000	-1000000	-1000000	-1000000	
14.64	0.5237	7901.1	2.052	349.96	-1000000	-1000000	-1000000	-1000000	
14.66	0.5306	7934.9	2.067	350.05	-1000000	-1000000	-1000000	-1000000	
14.68	0.5376	7968.4	2.082	350.11	-1000000	-1000000	-1000000	-1000000	
14.70	0.5446	8001.8	2.097	350.07	-1000000	-1000000	-1000000	-1000000	
14.72	0.5518	8035.5	2.112	349.93	-1000000	-1000000	-1000000	-1000000	
14.74	0.5590	8069.0	2.127	349.82	-1000000	-1000000	-1000000	-1000000	
14.76	0.5663	8101.9	2.143	349.99	-1000000	-1000000	-1000000	-1000000	
14.78	0.5737	8134.9	2.158	350.41	-1000000	-1000000	-1000000	-1000000	
14.80	0.5812	8168.1	2.174	350.45	-1000000	-1000000	-1000000	-1000000	
14.82	0.5886	8201.4	2.189	350.26	-1000000	-1000000	-1000000	-1000000	
14.84	0.5961	8234.4	2.205	350.37	-1000000	-1000000	-1000000	-1000000	
14.86	0.6037	8267.2	2.221	350.46	-1000000	-1000000	-1000000	-1000000	
14.88	0.6114	8299.5	2.237	350.40	-1000000	-1000000	-1000000	-1000000	
14.90	0.6192	8331.3	2.253	350.43	-1000000	-1000000	-1000000	-1000000	
14.92	0.6269	8362.9	2.270	350.57	-1000000	-1000000	-1000000	-1000000	
14.94	0.6345	8394.1	2.286	350.64	-1000000	-1000000	-1000000	-1000000	
14.96	0.6417	8424.0	2.303	350.66	-1000000	-1000000	-1000000	-1000000	
14.98	0.6483	8450.2	2.319	350.69	-1000000	-1000000	-1000000	-1000000	
15.00	0.6551	8473.3	2.336	350.92	-1000000	-1000000	-1000000	-1000000	
15.02	0.6627	8497.8	2.353	350.91	-1000000	-1000000	-1000000	-1000000	
15.04	0.6708	8526.2	2.370	350.78	-1000000	-1000000	-1000000	-1000000	
15.06	0.6791	8557.3	2.387	350.70	-1000000	-1000000	-1000000	-1000000	
15.08	0.6876	8591.7	2.404	350.80	-1000000	-1000000	-1000000	-1000000	
15.10	0.6962	8629.2	2.422	350.90	-1000000	-1000000	-1000000	-1000000	
15.12	0.7049	8665.3	2.439	350.61	-1000000	-1000000	-1000000	-1000000	
15.14	0.7137	8697.9	2.457	350.39	-1000000	-1000000	-1000000	-1000000	
15.16	0.7225	8728.4	2.475	350.68	-1000000	-1000000	-1000000	-1000000	
15.18	0.7314	8759.0	2.492	350.88	-1000000	-1000000	-1000000	-1000000	
15.20	0.7404	8789.8	2.510	351.07	-1000000	-1000000	-1000000	-1000000	
15.22	0.7495	8820.4	2.528	350.96	-1000000	-1000000	-1000000	-1000000	
15.24	0.7587	8851.1	2.547	350.83	-1000000	-1000000	-1000000	-1000000	
15.26	0.7681	8882.1	2.565	350.85	-1000000	-1000000	-1000000	-1000000	
15.28	0.7774	8912.0	2.583	350.88	-1000000	-1000000	-1000000	-1000000	
15.30	0.7865	8940.9	2.602	350.92	-1000000	-1000000	-1000000	-1000000	
15.32	0.7953	8969.1	2.621	350.82	-1000000	-1000000	-1000000	-1000000	
15.34	0.8036	8994.9	2.640	350.79	-1000000	-1000000	-1000000	-1000000	
15.36	0.8117	9016.8	2.659	350.81	-1000000	-1000000	-1000000	-1000000	
15.38	0.8197	9036.7	2.678	351.03	-1000000	-1000000	-1000000	-1000000	
15.40	0.8273	9055.6	2.697	351.19	-1000000	-1000000	-1000000	-1000000	
15.42	0.8351	9072.8	2.716	351.11	-1000000	-1000000	-1000000	-1000000	
15.44	0.8439	9093.1	2.735	351.03	-1000000	-1000000	-1000000	-1000000	
15.46	0.8535	9121.3	2.755	351.03	-1000000	-1000000	-1000000	-1000000	
15.48	0.8635	9154.4	2.775	351.11	-1000000	-1000000	-1000000	-1000000	
15.50	0.8735	9189.0	2.794	351.09	-1000000	-1000000	-1000000	-1000000	
15.52	0.8836	9224.9	2.814	351.07	-1000000	-1000000	-1000000	-1000000	
15.54	0.8938	9258.7	2.835	351.04	-1000000	-1000000	-1000000	-1000000	
15.56	0.9041	9287.9	2.855	351.07	-1000000	-1000000	-1000000	-1000000	
15.58	0.9145	9313.6	2.875	351.08	-1000000	-1000000	-1000000	-1000000	
15.60	0.9250	9338.6	2.895	351.11	-1000000	-1000000	-1000000	-1000000	
15.62	0.9356	9364.3	2.916	351.08	-1000000	-1000000	-1000000	-1000000	
15.64	0.9463	9390.5	2.936	351.04	-1000000	-1000000	-1000000	-1000000	
15.66	0.9570	9416.8	2.957	351.20	-1000000	-1000000	-1000000	-1000000	
15.68	0.9679	9443.0	2.978	351.30	-1000000	-1000000	-1000000	-1000000	
15.70	0.9788	9468.6	2.999	351.14	-1000000	-1000000	-1000000	-1000000	
15.72	0.9897	9494.1	3.020	351.17	-1000000	-1000000	-1000000	-1000000	
15.74	1.001	9519.4	3.041	351.30	-1000000	-1000000	-1000000	-1000000	
15.76	1.012	9543.5	3.062	351.10	-1000000	-1000000	-1000000	-1000000	
15.78	1.023	9567.1	3.084	350.88	-1000000	-1000000	-1000000	-1000000	
15.80	1.034	9590.5	3.106	350.88	-1000000	-1000000	-1000000	-1000000	
15.82	1.044	9612.9	3.127	350.89	-1000000	-1000000	-1000000	-1000000	
15.84	1.055	9633.8	3.149	351.06	-1000000	-1000000	-1000000	-1000000	
15.86	1.065	9652.9	3.171	351.52	-1000000	-1000000	-1000000	-1000000	
15.88	1.075	9670.3	3.193	351.49	-1000000	-1000000	-1000000	-1000000	
15.90	1.085	9686.2	3.215	351.20	-1000000	-1000000	-1000000	-1000000	
15.92	1.094	9699.9	3.238	351.06	-1000000	-1000000	-1000000	-1000000	
15.94	1.104	9711.9	3.260	350.95	-1000000	-1000000	-1000000	-1000000	
15.96	1.114	9727.4	3.282	350.95	-1000000	-1000000	-1000000	-1000000	
15.98	1.126	9749.8	3.305	351.10	-1000000	-1000000	-1000000	-1000000	
16.00	1.138	9777.2	3.328	351.16	-1000000	-1000000	-1000000	-1000000	
16.02	1.150	9807.8	3.351	351.18	-1000000	-1000000	-1000000	-1000000	
16.04	1.162	9840.8	3.374	351.37	-1000000	-1000000	-1000000	-1000000	
16.06	1.174	9870.7	3.397	351.52	-1000000	-1000000	-1000000	-1000000	
16.08	1.187	9894.2	3.420	351.48	-1000000	-1000000	-1000000	-1000000	
16.10	1.199	9913.9	3.444	351.43	-1000000	-1000000	-1000000	-1000000	
16.12	1.212	9932.7	3.467	351.42	-1000000	-1000000	-1000000	-1000000	
16.14	1.224	9951.8	3.491	351.55	-1000000	-1000000	-1000000	-1000000	
16.16	1.237	9971.3	3.515	351.56	-1000000	-1000000	-1000000	-1000000	
16.18	1.249	9990.7	3.538	351.39	-1000000	-1000000	-1000000	-1000000	
16.20	1.262	10010	3.563	351.22	-1000000	-1000000	-1000000	-1000000	
16.22	1.275	10030	3.587	351.12	-1000000	-1000000	-1000000	-1000000	
16.24	1.288	10050	3.611	351.31	-1000000	-1000000	-1000000	-1000000	
16.26	1.301	10070	3.635	351.48	-1000000	-1000000	-1000000	-1000000	
16.28	1.315	10089	3.660	351.68	-1000000	-1000000	-1000000	-1000000	
16.30	1.328	10107	3.684	351.71	-1000000	-1000000	-1000000	-1000000	
16.32	1.341	10126	3.709	351.62	-1000000	-1000000	-1000000	-1000000	
16.34	1.355	10145	3.734	351.44	-1000000	-1000000	-1000000	-1000000	
16.36	1.369	10163	3.759	351.49	-1000000	-1000000	-1000000	-1000000	
16.38	1.382	10181	3.784	351.58	-1000000	-1000000	-1000000	-1000000	
16.40	1.396	10197	3.809	351.54	-1000000	-1000000	-1000000	-1000000	
16.42	1.410	10214	3.834	351.56	-1000000	-1000000	-1000000	-1000000	
16.44	1.424	10231	3.860	351.70	-1000000	-1000000	-1000000	-1000000	
16.46	1.438	10248	3.885	351.96	-1000000	-1000000	-1000000	-1000000	
16.48	1.451	10264	3.911	351.98	-1000000	-1000000	-1000000	-1000000	
16.50	1.465	10279	3.937	351.90	-1000000	-1000000	-1000000	-1000000	
16.52	1.479	10294	3.962	351.71	-1000000	-1000000	-1000000	-1000000	
16.54	1.493	10309	3.988	351.78	-1000000	-1000000	-1000000	-1000000	
16.56	1.507	10323	4.015	351.78	-1000000	-1000000	-1000000	-1000000	
16.58	1.521	10336	4.041	351.78	-1000000	-1000000	-1000000	-1000000	
16.60	1.534	10348	4.067	351.95	-1000000	-1000000	-1000000	-1000000	
16.62	1.547	10359	4.094	352.11	-1000000	-1000000	-1000000	-1000000	
16.64	1.561	10370	4.120	351.97	-1000000	-1000000	-1000000	-1000000	
16.66	1.574	10381	4.147	351.99	-1000000	-1000000	-1000000	-1000000	
16.68	1.588	10392	4.174	351.97	-1000000	-1000000	-1000000	-1000000	
16.70	1.602	10405	4.201	351.95	-1000000	-1000000	-1000000	-1000000	
16.72	1.616	10421	4.228	352.12	-1000000	-1000000	-1000000	-1000000	
16.74	1.631	10440	4.255	352.33	-1000000	-1000000	-1000000	-1000000	
16.76	1.647	10459	4.283	352.42	-1000000	-1000000	-1000000	-1000000	
16.78	1.662	10479	4.310	352.26	-1000000	-1000000	-1000000	-1000000	
16.80	1.678	10498	4.338	352.00	-1000000	-1000000	-1000000	-1000000	
16.82	1.694	10515	4.365	352.06	-1000000	-1000000	-1000000	-1000000	
16.84	1.710	10528	4.393	352.33	-1000000	-1000000	-1000000	-1000000	
16.86	1.726	10540	4.421	352.45	-1000000	-1000000	-1000000	-1000000	
16.88	1.742	10552	4.449	352.49	-1000000	-1000000	-1000000	-1000000	
16.90	1.759	10564	4.477	352.55	-1000000	-1000000	-1000000	-1000000	
16.92	1.775	10576	4.506	352.61	-1000000	-1000000	-1000000	-1000000	
16.94	1.792	10588	4.534	352.60	-1000000	-1000000	-1000000	-1000000	
16.96	1.808	10600	4.563	352.68	-1000000	-1000000	-1000000	-1000000	
16.98	1.825	10611	4.591	352.56	-1000000	-1000000	-1000000	-1000000	
17.00	1.842	10623	4.620	352.47	-1000000	-1000000	-1000000	-1000000	
17.02	1.859	10634	4.649	352.43	-1000000	-1000000	-1000000	-1000000	
17.04	1.876	10646	4.678	352.44	-1000000	-1000000	-1000000	-1000000	
17.06	1.894	10657	4.707	352.69	-1000000	-1000000	-1000000	-1000000	
17.08	1.911	10668	4.736	352.74	-1000000	-1000000	-1000000	-1000000	
17.10	1.929	10679	4.766	352.67	-1000000	-1000000	-1000000	-1000000	
17.12	1.946	10689	4.795	352.72	-1000000	-1000000	-1000000	-1000000	
17.14	1.964	10700	4.825	352.82	-1000000	-1000000	-1000000	-1000000	
17.16	1.982	10711	4.855	353.02	-1000000	-1000000	-1000000	-1000000	
17.18	2.000	10721	4.884	353.33	-1000000	-1000000	-1000000	-1000000	
17.20	2.018	10730	4.914	353.37	-1000000	-1000000	-1000000	-1000000	
17.22	2.037	10739	4.944	353.17	-1000000	-1000000	-1000000	-1000000	
17.24	2.055	10749	4.975	353.11	-1000000	-1000000	-1000000	-1000000	
17.26	2.074	10758	5.005	353.00	-1000000	-1000000	-1000000	-1000000	
17.28	2.093	10767	5.035	352.89	-1000000	-1000000	-1000000	-1000000	
17.30	2.112	10776	5.066	353.08	-1000000	-1000000	-1000000	-1000000	
17.32	2.131	10785	5.097	353.29	-1000000	-1000000	-1000000	-1000000	
17.34	2.150	10794	5.128	353.45	-1000000	-1000000	-1000000	-1000000	
17.36	2.170	10802	5.159	353.54	-1000000	-1000000	-1000000	-1000000	
17.38	2.189	10810	5.190	353.56	-1000000	-1000000	-1000000	-1000000	
17.40	2.209	10818	5.221	353.50	-1000000	-1000000	-1000000	-1000000	
17.42	2.229	10826	5.252	353.42	-1000000	-1000000	-1000000	-1000000	
17.44	2.249	10833	5.283	353.34	-1000000	-1000000	-1000000	-1000000	
17.46	2.269	10841	5.315	353.39	-1000000	-1000000	-1000000	-1000000	
17.48	2.289	10849	5.347	353.66	-1000000	-1000000	-1000000	-1000000	
17.50	2.310	10856	5.378	353.71	-1000000	-1000000	-1000000	-1000000	
17.52	2.331	10863	5.410	353.76	-1000000	-1000000	-1000000	-1000000	
17.54	2.351	10870	5.442	353.95	-1000000	-1000000	-1000000	-1000000	
17.56	2.372	10877	5.475	354.23	-1000000	-1000000	-1000000	-1000000	
17.58	2.394	10883	5.507	354.35	-1000000	-1000000	-1000000	-1000000	
17.60	2.415	10890	5.539	354.23	-1000000	-1000000	-1000000	-1000000	
17.62	2.437	10896	5.572	354.24	-1000000	-1000000	-1000000	-1000000	
17.64	2.458	10902	5.604	354.36	-1000000	-1000000	-1000000	-1000000	
17.66	2.480	10907	5.637	354.38	-1000000	-1000000	-1000000	-1000000	
17.68	2.503	10913	5.670	354.37	-1000000	-1000000	-1000000	-1000000	
17.70	2.525	10919	5.703	354.71	-1000000	-1000000	-1000000	-1000000	
17.72	2.548	10924	5.736	354.95	-1000000	-1000000	-1000000	-1000000	
17.74	2.571	10930	5.769	355.09	-1000000	-1000000	-1000000	-1000000	
17.76	2.593	10935	5.802	355.21	-1000000	-1000000	-1000000	-1000000	
17.78	2.617	10940	5.836	355.19	-1000000	-1000000	-1000000	-1000000	
17.80	2.640	10944	5.869	355.07	-1000000	-1000000	-1000000	-1000000	
17.82	2.664	10948	5.903	355.10	-1000000	-1000000	-1000000	-1000000	
17.84	2.688	10952	5.937	355.25	-1000000	-1000000	-1000000	-1000000	
17.86	2.712	10956	5.971	355.43	-1000000	-1000000	-1000000	-1000000	
17.88	2.737	10960	6.005	355.44	-1000000	-1000000	-1000000	-1000000	
17.90	2.761	10964	6.039	355.60	-1000000	-1000000	-1000000	-1000000	
17.92	2.786	10967	6.073	355.70	-1000000	-1000000	-1000000	-1000000	
17.94	2.811	10971	6.108	355.72	-1000000	-1000000	-1000000	-1000000	
17.96	2.837	10974	6.142	355.68	-1000000	-1000000	-1000000	-1000000	
17.98	2.863	10977	6.177	355.81	-1000000	-1000000	-1000000	-1000000	
18.00	2.889	10980	6.212	356.13	-1000000	-1000000	-1000000	-1000000	
18.02	2.915	10983	6.247	356.37	-1000000	-1000000	-1000000	-1000000	
18.04	2.942	10985	6.282	356.39	-1000000	-1000000	-1000000	-1000000	
18.06	2.968	10987	6.317	356.53	-1000000	-1000000	-1000000	-1000000	
18.08	2.996	10989	6.352	356.64	-1000000	-1000000	-1000000	-1000000	
18.10	3.023	10991	6.387	356.72	-1000000	-1000000	-1000000	-1000000	
18.12	3.051	10992	6.423	356.82	-1000000	-1000000	-1000000	-1000000	
18.14	3.079	10993	6.459	356.98	-1000000	-1000000	-1000000	-1000000	
18.16	3.107	10994	6.494	357.15	-1000000	-1000000	-1000000	-1000000	
18.18	3.136	10995	6.530	357.44	-1000000	-1000000	-1000000	-1000000	
18.20	3.165	10996	6.566	357.62	-1000000	-1000000	-1000000	-1000000	
18.22	3.194	10996	6.602	357.70	-1000000	-1000000	-1000000	-1000000	
18.24	3.224	10995	6.638	357.88	-1000000	-1000000	-1000000	-1000000	
18.26	3.254	10994	6.675	358.18	-1000000	-1000000	-1000000	-1000000	
18.28	3.284	10993	6.711	358.39	-1000000	-1000000	-1000000	-1000000	
18.30	3.315	10992	6.748	358.48	-1000000	-1000000	-1000000	-1000000	
18.32	3.346	10991	6.784	358.59	-1000000	-1000000	-1000000	-1000000	
18.34	3.378	10989	6.821	358.85	-1000000	-1000000	-1000000	-1000000	
18.36	3.409	10986	6.858	359.12	-1000000	-1000000	-1000000	-1000000	
18.38	3.441	10983	6.895	359.31	-1000000	-1000000	-1000000	-1000000	
18.40	3.474	10980	6.932	359.46	-1000000	-1000000	-1000000	-1000000	
18.42	3.507	10977	6.970	359.68	-1000000	-1000000	-1000000	-1000000	
18.44	3.540	10973	7.007	360.06	-1000000	-1000000	-1000000	-1000000	
18.46	3.573	10968	7.045	360.40	-1000000	-1000000	-1000000	-1000000	
18.48	3.607	10963	7.082	360.51	-1000000	-1000000	-1000000	-1000000	
18.50	3.641	10958	7.120	360.50	-1000000	-1000000	-1000000	-1000000	
18.52	3.676	10951	7.158	360.62	-1000000	-1000000	-1000000	-1000000	
18.54	3.711	10945	7.196	360.94	-1000000	-1000000	-1000000	-1000000	
18.56	3.746	10937	7.234	361.34	-1000000	-1000000	-1000000	-1000000	
18.58	3.782	10929	7.272	361.77	-1000000	-1000000	-1000000	-1000000	
18.60	3.818	10921	7.311	362.19	-1000000	-1000000	-1000000	-1000000	
18.62	3.854	10911	7.349	362.56	-1000000	-1000000	-1000000	-1000000	
18.64	3.890	10901	7.388	362.77	-1000000	-1000000	-1000000	-1000000	
18.66	3.927	10890	7.427	362.90	-1000000	-1000000	-1000000	-1000000	
18.68	3.965	10879	7.465	363.32	-1000000	-1000000	-1000000	-1000000	
18.70	4.003	10866	7.504	363.73	-1000000	-1000000	-1000000	-1000000	
18.72	4.041	10853	7.544	364.21	-1000000	-1000000	-1000000	-1000000	
18.74	4.079	10838	7.583	364.70	-1000000	-1000000	-1000000	-1000000	
18.76	4.117	10823	7.622	365.01	-1000000	-1000000	-1000000	-1000000	
18.78	4.156	10806	7.662	365.30	-1000000	-1000000	-1000000	-1000000	
18.80	4.196	10788	7.701	365.60	-1000000	-1000000	-1000000	-1000000	
18.82	4.235	10770	7.741	365.99	-1000000	-1000000	-1000000	-1000000	
18.84	4.274	10749	7.781	366.54	-1000000	-1000000	-1000000	-1000000	
18.86	4.307	10724	7.820	366.96	-1000000	-1000000	-1000000	-1000000	
18.88	4.328	10679	7.861	367.24	-1000000	-1000000	-1000000	-1000000	
18.90	4.339	10599	7.899	367.66	-1000000	-1000000	-1000000	-1000000	
18.92	4.345	10489	7.928	367.76	-1000000	-1000000	-1000000	-1000000	
18.94	4.350	10360	7.944	367.49	-1000000	-1000000	-1000000	-1000000	
18.96	4.353	10220	7.950	367.45	-1000000	-1000000	-1000000	-1000000	
18.98	4.356	10089	7.953	367.38	-1000000	-1000000	-1000000	-1000000	
19.00	4.358	9982.1	7.954	367.25	-1000000	-1000000	-1000000	-1000000	
19.02	4.359	9898.8	7.955	367.13	-1000000	-1000000	-1000000	-1000000	
19.04	4.361	9830.9	7.955	367.18	-1000000	-1000000	-1000000	-1000000	
19.06	4.362	9773.5	7.955	367.15	-1000000	-1000000	-1000000	-1000000	
19.08	4.363	9723.8	7.955	367.20	-1000000	-1000000	-1000000	-1000000	
19.10	4.364	9680.9	7.955	367.11	-1000000	-1000000	-1000000	-1000000	
19.12	4.365	9643.6	7.955	366.79	-1000000	-1000000	-1000000	-1000000	
19.14	4.366	9610.5	7.955	366.64	-1000000	-1000000	-1000000	-1000000	
19.16	4.367	9581.2	7.955	366.58	-1000000	-1000000	-1000000	-1000000	
19.18	4.368	9554.7	7.955	366.38	-1000000	-1000000	-1000000	-1000000	
19.20	4.368	9530.7	7.955	366.20	-1000000	-1000000	-1000000	-1000000	
19.22	4.369	9508.8	7.955	366.07	-1000000	-1000000	-1000000	-1000000	
19.24	4.369	9488.7	7.955	365.94	-1000000	-1000000	-1000000	-1000000	
19.26	4.370	9470.2	7.955	365.90	-1000000	-1000000	-1000000	-1000000	
19.28	4.370	9453.0	7.955	366.01	-1000000	-1000000	-1000000	-1000000	
19.30	4.371	9437.1	7.955	365.99	-1000000	-1000000	-1000000	-1000000	
19.32	4.371	9422.0	7.955	365.77	-1000000	-1000000	-1000000	-1000000	
19.34	4.372	9408.0	7.955	365.73	-1000000	-1000000	-1000000	-1000000	
19.36	4.372	9394.8	7.955	365.79	-1000000	-1000000	-1000000	-1000000	
19.38	4.373	9382.3	7.955	365.70	-1000000	-1000000	-1000000	-1000000	
19.40	4.373	9370.5	7.955	365.58	-1000000	-1000000	-1000000	-1000000	
19.42	4.373	9359.5	7.955	365.61	-1000000	-1000000	-1000000	-1000000	
19.44	4.374	9349.1	7.955	365.57	-1000000	-1000000	-1000000	-1000000	
19.46	4.374	9339.1	7.955	365.48	-1000000	-1000000	-1000000	-1000000	
19.48	4.374	9329.4	7.955	365.47	-1000000	-1000000	-1000000	-1000000	
19.50	4.374	9320.2	7.955	365.46	-1000000	-1000000	-1000000	-1000000	
19.52	4.375	9311.7	7.955	365.39	-1000000	-1000000	-1000000	-1000000	
19.54	4.375	9303.5	7.955	365.23	-1000000	-1000000	-1000000	-1000000	
19.56	4.375	9295.5	7.955	365.18	-1000000	-1000000	-1000000	-1000000	
19.58	4.376	9287.7	7.955	365.14	-1000000	-1000000	-1000000	-1000000	
19.60	4.376	9280.4	7.955	364.98	-1000000	-1000000	-1000000	-1000000	
19.62	4.376	9273.6	7.955	364.89	-1000000	-1000000	-1000000	-1000000	
19.64	4.376	9266.3	7.955	364.89	-1000000	-1000000	-1000000	-1000000	
19.66	4.376	9258.9	7.955	364.82	-1000000	-1000000	-1000000	-1000000	
19.68	4.377	9251.9	7.955	364.67	-1000000	-1000000	-1000000	-1000000	
19.70	4.377	9245.0	7.955	364.44	-1000000	-1000000	-1000000	-1000000	
19.72	4.377	9238.6	7.955	364.37	-1000000	-1000000	-1000000	-1000000	
19.74	4.377	9232.9	7.955	364.41	-1000000	-1000000	-1000000	-1000000	
19.76	4.378	9226.9	7.955	364.47	-1000000	-1000000	-1000000	-1000000	
19.78	4.378	9221.0	7.955	364.42	-1000000	-1000000	-1000000	-1000000	
19.80	4.378	9215.4	7.955	364.38	-1000000	-1000000	-1000000	-1000000	
19.82	4.378	9210.2	7.955	364.17	-1000000	-1000000	-1000000	-1000000	
19.84	4.378	9205.0	7.955	364.08	-1000000	-1000000	-1000000	-1000000	
19.86	4.378	9199.5	7.954	363.94	-1000000	-1000000	-1000000	-1000000	
19.88	4.379	9194.1	7.954	363.77	-1000000	-1000000	-1000000	-1000000	
19.90	4.379	9189.1	7.954	363.68	-1000000	-1000000	-1000000	-1000000	
19.92	4.379	9183.8	7.954	363.78	-1000000	-1000000	-1000000	-1000000	
19.94	4.379	9178.5	7.954	363.85	-1000000	-1000000	-1000000	-1000000	
19.96	4.379	9173.5	7.953	363.65	-1000000	-1000000	-1000000	-1000000	
19.98	4.379	9168.4	7.953	363.47	-1000000	-1000000	-1000000	-1000000	
20.00	4.379	9162.9	7.953	363.43	-1000000	-1000000	-1000000	-1000000	
20.02	4.379	9157.3	7.953	363.38	-1000000	-1000000	-1000000	-1000000	
20.04	4.380	9151.8	7.953	363.41	-1000000	-1000000	-1000000	-1000000	
20.06	4.380	9146.4	7.953	363.44	-1000000	-1000000	-1000000	-1000000	
20.08	4.380	9141.1	7.952	363.35	-1000000	-1000000	-1000000	-1000000	
20.10	4.380	9135.7	7.952	363.29	-1000000	-1000000	-1000000	-1000000	
20.12	4.380	9130.5	7.952	363.28	-1000000	-1000000	-1000000	-1000000	
20.14	4.380	9125.3	7.952	363.22	-1000000	-1000000	-1000000	-1000000	
20.16	4.380	9119.5	7.951	363.07	-1000000	-1000000	-1000000	-1000000	
20.18	4.380	9114.1	7.951	362.96	-1000000	-1000000	-1000000	-1000000	
20.20	4.380	9108.7	7.951	362.85	-1000000	-1000000	-1000000	-1000000	
20.22	4.380	9102.5	7.951	362.60	-1000000	-1000000	-1000000	-1000000	
20.24	4.380	9096.2	7.951	362.57	-1000000	-1000000	-1000000	-1000000	
20.26	4.380	9090.0	7.950	362.64	-1000000	-1000000	-1000000	-1000000	
20.28	4.380	9083.6	7.950	362.62	-1000000	-1000000	-1000000	-1000000	
20.30	4.380	9077.1	7.950	362.63	-1000000	-1000000	-1000000	-1000000	
20.32	4.381	9071.1	7.950	362.73	-1000000	-1000000	-1000000	-1000000	
20.34	4.381	9065.3	7.949	362.63	-1000000	-1000000	-1000000	-1000000	
20.36	4.381	9059.1	7.949	362.38	-1000000	-1000000	-1000000	-1000000	
20.38	4.381	9052.3	7.949	362.35	-1000000	-1000000	-1000000	-1000000	
20.40	4.381	9044.7	7.948	362.24	-1000000	-1000000	-1000000	-1000000	
20.42	4.381	9037.2	7.948	362.12	-1000000	-1000000	-1000000	-1000000	
20.44	4.381	9030.1	7.948	362.04	-1000000	-1000000	-1000000	-1000000	
20.46	4.381	9023.2	7.947	362.03	-1000000	-1000000	-1000000	-1000000	
20.48	4.381	9016.8	7.947	361.88	-1000000	-1000000	-1000000	-1000000	
20.50	4.381	9009.9	7.947	361.75	-1000000	-1000000	-1000000	-1000000	
20.52	4.381	9002.4	7.946	361.77	-1000000	-1000000	-1000000	-1000000	
20.54	4.381	8994.7	7.946	361.69	-1000000	-1000000	-1000000	-1000000	
20.56	4.381	8986.7	7.946	361.40	-1000000	-1000000	-1000000	-1000000	
20.58	4.381	8978.8	7.945	361.23	-1000000	-1000000	-1000000	-1000000	
20.60	4.381	8971.1	7.945	361.28	-1000000	-1000000	-1000000	-1000000	
20.62	4.381	8963.2	7.945	361.35	-1000000	-1000000	-1000000	-1000000	
20.64	4.381	8955.1	7.944	361.18	-1000000	-1000000	-1000000	-1000000	
20.66	4.381	8946.7	7.944	361.14	-1000000	-1000000	-1000000	-1000000	
20.68	4.381	8938.3	7.943	361.05	-1000000	-1000000	-1000000	-1000000	
20.70	4.381	8929.9	7.943	360.85	-1000000	-1000000	-1000000	-1000000	
20.72	4.381	8921.5	7.943	360.84	-1000000	-1000000	-1000000	-1000000	
20.74	4.381	8913.2	7.942	360.73	-1000000	-1000000	-1000000	-1000000	
20.76	4.381	8904.8	7.942	360.67	-1000000	-1000000	-1000000	-1000000	
20.78	4.381	8896.1	7.941	360.75	-1000000	-1000000	-1000000	-1000000	
20.80	4.380	8887.4	7.941	360.68	-1000000	-1000000	-1000000	-1000000	
20.82	4.380	8878.7	7.940	360.62	-1000000	-1000000	-1000000	-1000000	
20.84	4.380	8869.5	7.940	360.64	-1000000	-1000000	-1000000	-1000000	
20.86	4.380	8860.2	7.939	360.51	-1000000	-1000000	-1000000	-1000000	
20.88	4.380	8850.7	7.939	360.34	-1000000	-1000000	-1000000	-1000000	
20.90	4.380	8840.8	7.939	360.21	-1000000	-1000000	-1000000	-1000000	
20.92	4.380	8830.6	7.938	360.00	-1000000	-1000000	-1000000	-1000000	
20.94	4.380	8820.6	7.938	359.91	-1000000	-1000000	-1000000	-1000000	
20.96	4.380	8810.5	7.937	359.97	-1000000	-1000000	-1000000	-1000000	
20.98	4.380	8800.4	7.937	360.12	-1000000	-1000000	-1000000	-1000000	
21.00	4.380	8790.2	7.936	360.15	-1000000	-1000000	-1000000	-1000000	
21.02	4.380	8780.1	7.936	359.87	-1000000	-1000000	-1000000	-1000000	
21.04	4.380	8770.3	7.935	359.62	-1000000	-1000000	-1000000	-1000000	
21.06	4.380	8760.2	7.935	359.54	-1000000	-1000000	-1000000	-1000000	
21.08	4.380	8749.9	7.934	359.54	-1000000	-1000000	-1000000	-1000000	
21.10	4.379	8739.5	7.933	359.62	-1000000	-1000000	-1000000	-1000000	
21.12	4.379	8728.8	7.933	359.51	-1000000	-1000000	-1000000	-1000000	
21.14	4.379	8717.8	7.932	359.52	-1000000	-1000000	-1000000	-1000000	
21.16	4.379	8706.6	7.932	359.51	-1000000	-1000000	-1000000	-1000000	
21.18	4.379	8695.4	7.931	359.39	-1000000	-1000000	-1000000	-1000000	
21.20	4.379	8683.9	7.931	359.40	-1000000	-1000000	-1000000	-1000000	
21.22	4.379	8672.3	7.930	359.41	-1000000	-1000000	-1000000	-1000000	
21.24	4.379	8660.6	7.930	359.34	-1000000	-1000000	-1000000	-1000000	
21.26	4.379	8648.7	7.929	359.26	-1000000	-1000000	-1000000	-1000000	
21.28	4.379	8636.9	7.928	359.17	-1000000	-1000000	-1000000	-1000000	
21.30	4.379	8625.2	7.928	359.15	-1000000	-1000000	-1000000	-1000000	
21.32	4.378	8613.1	7.927	359.11	-1000000	-1000000	-1000000	-1000000	
21.34	4.378	8600.6	7.927	358.92	-1000000	-1000000	-1000000	-1000000	
21.36	4.378	8588.0	7.926	358.95	-1000000	-1000000	-1000000	-1000000	
21.38	4.378	8575.4	7.925	358.93	-1000000	-1000000	-1000000	-1000000	
21.40	4.378	8563.0	7.925	358.79	-1000000	-1000000	-1000000	-1000000	
21.42	4.378	8550.5	7.924	358.61	-1000000	-1000000	-1000000	-1000000	
21.44	4.378	8537.9	7.923	358.53	-1000000	-1000000	-1000000	-1000000	
21.46	4.378	8525.1	7.923	358.49	-1000000	-1000000	-1000000	-1000000	
21.48	4.377	8511.6	7.922	358.44	-1000000	-1000000	-1000000	-1000000	
21.50	4.377	8498.2	7.921	358.46	-1000000	-1000000	-1000000	-1000000	
21.52	4.377	8484.7	7.921	358.40	-1000000	-1000000	-1000000	-1000000	
21.54	4.377	8471.2	7.920	358.36	-1000000	-1000000	-1000000	-1000000	
21.56	4.377	8457.2	7.919	358.14	-1000000	-1000000	-1000000	-1000000	
21.58	4.377	8443.2	7.919	358.03	-1000000	-1000000	-1000000	-1000000	
21.60	4.377	8429.4	7.918	358.07	-1000000	-1000000	-1000000	-1000000	
21.62	4.377	8415.1	7.917	358.06	-1000000	-1000000	-1000000	-1000000	
21.64	4.376	8401.0	7.917	357.88	-1000000	-1000000	-1000000	-1000000	
21.66	4.376	8386.8	7.916	357.82	-1000000	-1000000	-1000000	-1000000	
21.68	4.376	8372.4	7.915	357.87	-1000000	-1000000	-1000000	-1000000	
21.70	4.376	8357.6	7.914	357.81	-1000000	-1000000	-1000000	-1000000	
21.72	4.376	8342.7	7.914	357.79	-1000000	-1000000	-1000000	-1000000	
21.74	4.376	8328.0	7.913	357.90	-1000000	-1000000	-1000000	-1000000	
21.76	4.376	8313.3	7.912	357.81	-1000000	-1000000	-1000000	-1000000	
21.78	4.375	8298.3	7.911	357.56	-1000000	-1000000	-1000000	-1000000	
21.80	4.375	8283.3	7.910	357.49	-1000000	-1000000	-1000000	-1000000	
21.82	4.375	8268.3	7.910	357.45	-1000000	-1000000	-1000000	-1000000	
21.84	4.375	8253.1	7.909	357.38	-1000000	-1000000	-1000000	-1000000	
21.86	4.375	8237.6	7.908	357.25	-1000000	-1000000	-1000000	-1000000	
21.88	4.375	8222.1	7.907	357.25	-1000000	-1000000	-1000000	-1000000	
21.90	4.374	8206.4	7.907	357.26	-1000000	-1000000	-1000000	-1000000	
21.92	4.374	8190.6	7.906	357.35	-1000000	-1000000	-1000000	-1000000	
21.94	4.374	8174.4	7.905	357.45	-1000000	-1000000	-1000000	-1000000	
21.96	4.374	8158.3	7.904	357.34	-1000000	-1000000	-1000000	-1000000	
21.98	4.374	8142.1	7.903	357.11	-1000000	-1000000	-1000000	-1000000	
22.00	4.374	8125.5	7.902	356.79	-1000000	-1000000	-1000000	-1000000	
22.02	4.373	8108.7	7.902	356.50	-1000000	-1000000	-1000000	-1000000	
22.04	4.373	8092.0	7.901	356.44	-1000000	-1000000	-1000000	-1000000	
22.06	4.373	8075.3	7.900	356.42	-1000000	-1000000	-1000000	-1000000	
22.08	4.373	8058.5	7.899	356.53	-1000000	-1000000	-1000000	-1000000	
22.10	4.373	8041.5	7.898	356.61	-1000000	-1000000	-1000000	-1000000	
22.12	4.373	8024.1	7.897	356.62	-1000000	-1000000	-1000000	-1000000	
22.14	4.372	8006.9	7.896	356.42	-1000000	-1000000	-1000000	-1000000	
22.16	4.372	7989.4	7.895	356.30	-1000000	-1000000	-1000000	-1000000	
22.18	4.372	7971.7	7.894	356.35	-1000000	-1000000	-1000000	-1000000	
22.20	4.372	7953.9	7.894	356.36	-1000000	-1000000	-1000000	-1000000	
22.22	4.372	7936.4	7.893	356.11	-1000000	-1000000	-1000000	-1000000	
22.24	4.372	7918.7	7.892	356.04	-1000000	-1000000	-1000000	-1000000	
22.26	4.371	7901.3	7.891	356.11	-1000000	-1000000	-1000000	-1000000	
22.28	4.371	7883.5	7.890	356.14	-1000000	-1000000	-1000000	-1000000	
22.30	4.371	7865.9	7.889	356.02	-1000000	-1000000	-1000000	-1000000	
22.32	4.371	7848.2	7.888	355.92	-1000000	-1000000	-1000000	-1000000	
22.34	4.371	7830.3	7.887	355.71	-1000000	-1000000	-1000000	-1000000	
22.36	4.370	7812.3	7.886	355.53	-1000000	-1000000	-1000000	-1000000	
22.38	4.370	7794.0	7.885	355.39	-1000000	-1000000	-1000000	-1000000	
22.40	4.370	7775.5	7.884	355.39	-1000000	-1000000	-1000000	-1000000	
22.42	4.370	7756.5	7.883	355.41	-1000000	-1000000	-1000000	-1000000	
22.44	4.370	7737.5	7.882	355.36	-1000000	-1000000	-1000000	-1000000	
22.46	4.369	7718.9	7.881	355.36	-1000000	-1000000	-1000000	-1000000	
22.48	4.369	7700.4	7.880	355.26	-1000000	-1000000	-1000000	-1000000	
22.50	4.369	7681.7	7.879	355.34	-1000000	-1000000	-1000000	-1000000	
22.52	4.369	7662.4	7.878	355.43	-1000000	-1000000	-1000000	-1000000	
22.54	4.369	7642.7	7.877	355.36	-1000000	-1000000	-1000000	-1000000	
22.56	4.368	7622.7	7.876	355.24	-1000000	-1000000	-1000000	-1000000	
22.58	4.368	7602.9	7.875	355.20	-1000000	-1000000	-1000000	-1000000	
22.60	4.368	7583.4	7.874	355.11	-1000000	-1000000	-1000000	-1000000	
22.62	4.368	7563.7	7.873	355.21	-1000000	-1000000	-1000000	-1000000	
22.64	4.367	7543.6	7.872	355.20	-1000000	-1000000	-1000000	-1000000	
22.66	4.367	7523.4	7.871	355.10	-1000000	-1000000	-1000000	-1000000	
22.68	4.367	7503.2	7.870	354.90	-1000000	-1000000	-1000000	-1000000	
22.70	4.367	7483.0	7.869	354.72	-1000000	-1000000	-1000000	-1000000	
22.72	4.367	7462.3	7.868	354.47	-1000000	-1000000	-1000000	-1000000	
22.74	4.366	7441.5	7.867	354.47	-1000000	-1000000	-1000000	-1000000	
22.76	4.366	7420.9	7.865	354.61	-1000000	-1000000	-1000000	-1000000	
22.78	4.366	7400.0	7.864	354.63	-1000000	-1000000	-1000000	-1000000	
22.80	4.366	7379.0	7.863	354.58	-1000000	-1000000	-1000000	-1000000	
22.82	4.365	7357.8	7.862	354.46	-1000000	-1000000	-1000000	-1000000	
22.84	4.365	7336.5	7.861	354.32	-1000000	-1000000	-1000000	-1000000	
22.86	4.365	7315.3	7.860	354.06	-1000000	-1000000	-1000000	-1000000	
22.88	4.365	7294.1	7.859	353.86	-1000000	-1000000	-1000000	-1000000	
22.90	4.365	7272.8	7.858	353.95	-1000000	-1000000	-1000000	-1000000	
22.92	4.364	7251.5	7.857	354.16	-1000000	-1000000	-1000000	-1000000	
22.94	4.364	7230.3	7.855	354.15	-1000000	-1000000	-1000000	-1000000	
22.96	4.364	7209.0	7.854	354.07	-1000000	-1000000	-1000000	-1000000	
22.98	4.364	7187.3	7.853	353.99	-1000000	-1000000	-1000000	-1000000	
23.00	4.363	7165.5	7.852	353.84	-1000000	-1000000	-1000000	-1000000	
23.02	4.363	7143.6	7.851	353.64	-1000000	-1000000	-1000000	-1000000	
23.04	4.363	7121.8	7.850	353.56	-1000000	-1000000	-1000000	-1000000	
23.06	4.363	7099.7	7.849	353.53	-1000000	-1000000	-1000000	-1000000	
23.08	4.362	7077.1	7.847	353.49	-1000000	-1000000	-1000000	-1000000	
23.10	4.362	7054.3	7.846	353.51	-1000000	-1000000	-1000000	-1000000	
23.12	4.362	7031.6	7.845	353.58	-1000000	-1000000	-1000000	-1000000	
23.14	4.362	7009.0	7.844	353.53	-1000000	-1000000	-1000000	-1000000	
23.16	4.361	6986.1	7.842	353.45	-1000000	-1000000	-1000000	-1000000	
23.18	4.361	6962.8	7.841	353.35	-1000000	-1000000	-1000000	-1000000	
23.20	4.361	6939.4	7.840	353.31	-1000000	-1000000	-1000000	-1000000	
23.22	4.361	6916.5	7.839	353.28	-1000000	-1000000	-1000000	-1000000	
23.24	4.360	6893.1	7.837	353.22	-1000000	-1000000	-1000000	-1000000	
23.26	4.360	6869.1	7.836	353.08	-1000000	-1000000	-1000000	-1000000	
23.28	4.360	6845.2	7.835	352.94	-1000000	-1000000	-1000000	-1000000	
23.30	4.360	6821.6	7.834	352.85	-1000000	-1000000	-1000000	-1000000	
23.32	4.359	6798.2	7.833	352.83	-1000000	-1000000	-1000000	-1000000	
23.34	4.359	6774.4	7.831	352.84	-1000000	-1000000	-1000000	-1000000	
23.36	4.359	6750.3	7.830	352.77	-1000000	-1000000	-1000000	-1000000	
23.38	4.359	6726.5	7.828	352.71	-1000000	-1000000	-1000000	-1000000	
23.40	4.358	6702.5	7.827	352.52	-1000000	-1000000	-1000000	-1000000	
23.42	4.358	6678.2	7.826	352.41	-1000000	-1000000	-1000000	-1000000	
23.44	4.358	6653.9	7.825	352.50	-1000000	-1000000	-1000000	-1000000	
23.46	4.358	6629.5	7.823	352.67	-1000000	-1000000	-1000000	-1000000	
23.48	4.357	6604.9	7.822	352.70	-1000000	-1000000	-1000000	-1000000	
23.50	4.357	6580.6	7.821	352.47	-1000000	-1000000	-1000000	-1000000	
23.52	4.357	6556.2	7.819	352.26	-1000000	-1000000	-1000000	-1000000	
23.54	4.357	6531.5	7.818	352.29	-1000000	-1000000	-1000000	-1000000	
23.56	4.356	6506.9	7.817	352.43	-1000000	-1000000	-1000000	-1000000	
23.58	4.356	6482.1	7.815	352.31	-1000000	-1000000	-1000000	-1000000	
23.60	4.356	6457.2	7.814	352.07	-1000000	-1000000	-1000000	-1000000	
23.62	4.355	6432.0	7.812	352.02	-1000000	-1000000	-1000000	-1000000	
23.64	4.355	6407.0	7.811	351.97	-1000000	-1000000	-1000000	-1000000	
23.66	4.355	6381.8	7.810	351.88	-1000000	-1000000	-1000000	-1000000	
23.68	4.355	6356.2	7.808	351.94	-1000000	-1000000	-1000000	-1000000	
23.70	4.354	6330.7	7.807	351.95	-1000000	-1000000	-1000000	-1000000	
23.72	4.354	6305.1	7.805	351.86	-1000000	-1000000	-1000000	-1000000	
23.74	4.354	6279.4	7.804	351.84	-1000000	-1000000	-1000000	-1000000	
23.76	4.353	6253.3	7.802	351.74	-1000000	-1000000	-1000000	-1000000	
23.78	4.353	6227.3	7.801	351.50	-1000000	-1000000	-1000000	-1000000	
23.80	4.353	6201.1	7.800	351.36	-1000000	-1000000	-1000000	-1000000	
23.82	4.353	6175.1	7.798	351.42	-1000000	-1000000	-1000000	-1000000	
23.84	4.352	6148.9	7.797	351.47	-1000000	-1000000	-1000000	-1000000	
23.86	4.352	6122.3	7.795	351.39	-1000000	-1000000	-1000000	-1000000	
23.88	4.352	6095.4	7.794	351.41	-1000000	-1000000	-1000000	-1000000	
23.90	4.351	6068.8	7.792	351.16	-1000000	-1000000	-1000000	-1000000	
23.92	4.351	6042.7	7.791	350.97	-1000000	-1000000	-1000000	-1000000	
23.94	4.351	6016.4	7.790	351.10	-1000000	-1000000	-1000000	-1000000	
23.96	4.350	5989.8	7.788	351.15	-1000000	-1000000	-1000000	-1000000	
23.98	4.350	5962.9	7.786	351.14	-1000000	-1000000	-1000000	-1000000	
24.00	4.350	5936.0	7.785	350.91	-1000000	-1000000	-1000000	-1000000	
24.02	4.349	5909.2	7.783	350.62	-1000000	-1000000	-1000000	-1000000	
24.04	4.349	5882.4	7.782	350.55	-1000000	-1000000	-1000000	-1000000	
24.06	4.349	5855.6	7.780	350.72	-1000000	-1000000	-1000000	-1000000	
24.08	4.349	5828.5	7.779	350.82	-1000000	-1000000	-1000000	-1000000	
24.10	4.348	5800.9	7.777	350.84	-1000000	-1000000	-1000000	-1000000	
24.12	4.348	5773.1	7.776	350.80	-1000000	-1000000	-1000000	-1000000	
24.14	4.348	5745.4	7.774	350.71	-1000000	-1000000	-1000000	-1000000	
24.16	4.347	5717.8	7.773	350.65	-1000000	-1000000	-1000000	-1000000	
24.18	4.347	5689.7	7.771	350.56	-1000000	-1000000	-1000000	-1000000	
24.20	4.347	5661.4	7.769	350.31	-1000000	-1000000	-1000000	-1000000	
24.22	4.346	5632.9	7.768	350.15	-1000000	-1000000	-1000000	-1000000	
24.24	4.346	5604.4	7.766	350.24	-1000000	-1000000	-1000000	-1000000	
24.26	4.346	5575.5	7.765	350.26	-1000000	-1000000	-1000000	-1000000	
24.28	4.346	5546.5	7.763	350.31	-1000000	-1000000	-1000000	-1000000	
24.30	4.345	5517.5	7.761	350.21	-1000000	-1000000	-1000000	-1000000	
24.32	4.345	5488.6	7.760	350.04	-1000000	-1000000	-1000000	-1000000	
24.34	4.345	5460.0	7.758	349.92	-1000000	-1000000	-1000000	-1000000	
24.36	4.344	5431.5	7.757	350.12	-1000000	-1000000	-1000000	-1000000	
24.38	4.344	5402.9	7.755	350.19	-1000000	-1000000	-1000000	-1000000	
24.40	4.344	5374.1	7.753	349.95	-1000000	-1000000	-1000000	-1000000	
24.42	4.343	5345.2	7.752	349.62	-1000000	-1000000	-1000000	-1000000	
24.44	4.343	5316.5	7.750	349.24	-1000000	-1000000	-1000000	-1000000	
24.46	4.343	5287.5	7.748	349.16	-1000000	-1000000	-1000000	-1000000	
24.48	4.342	5258.0	7.747	349.27	-1000000	-1000000	-1000000	-1000000	
24.50	4.342	5228.1	7.745	349.37	-1000000	-1000000	-1000000	-1000000	
24.52	4.341	5197.8	7.744	349.32	-1000000	-1000000	-1000000	-1000000	
24.54	4.341	5167.4	7.742	349.42	-1000000	-1000000	-1000000	-1000000	
24.56	4.341	5137.2	7.740	349.55	-1000000	-1000000	-1000000	-1000000	
24.58	4.341	5107.1	7.738	349.60	-1000000	-1000000	-1000000	-1000000	
24.60	4.340	5076.4	7.737	349.62	-1000000	-1000000	-1000000	-1000000	
24.62	4.340	5045.3	7.735	349.59	-1000000	-1000000	-1000000	-1000000	
24.64	4.339	5013.9	7.733	349.43	-1000000	-1000000	-1000000	-1000000	
24.66	4.339	4981.9	7.731	349.33	-1000000	-1000000	-1000000	-1000000	
24.68	4.339	4949.2	7.730	349.32	-1000000	-1000000	-1000000	-1000000	
24.70	4.339	4916.0	7.728	349.18	-1000000	-1000000	-1000000	-1000000	
24.72	4.338	4882.1	7.726	349.34	-1000000	-1000000	-1000000	-1000000	
24.74	4.338	4847.3	7.724	349.58	-1000000	-1000000	-1000000	-1000000	
24.76	4.338	4811.7	7.723	349.69	-1000000	-1000000	-1000000	-1000000	
24.78	4.337	4775.3	7.721	349.65	-1000000	-1000000	-1000000	-1000000	
24.80	4.337	4738.6	7.719	349.80	-1000000	-1000000	-1000000	-1000000	
24.82	4.337	4702.6	7.717	350.22	-1000000	-1000000	-1000000	-1000000	
24.84	4.336	4666.5	7.716	350.39	-1000000	-1000000	-1000000	-1000000	
24.86	4.336	4630.7	7.714	350.14	-1000000	-1000000	-1000000	-1000000	
24.88	4.336	4595.3	7.712	350.12	-1000000	-1000000	-1000000	-1000000	
24.90	4.335	4560.5	7.710	350.34	-1000000	-1000000	-1000000	-1000000	
24.92	4.335	4526.1	7.708	350.35	-1000000	-1000000	-1000000	-1000000	
24.94	4.334	4491.9	7.707	350.31	-1000000	-1000000	-1000000	-1000000	
24.96	4.334	4457.9	7.705	350.36	-1000000	-1000000	-1000000	-1000000	
24.98	4.334	4424.2	7.703	350.29	-1000000	-1000000	-1000000	-1000000	
25.00	4.333	4390.6	7.701	350.34	-1000000	-1000000	-1000000	-1000000	
25.02	4.333	4357.1	7.699	350.53	-1000000	-1000000	-1000000	-1000000	
25.04	4.333	4323.7	7.698	350.44	-1000000	-1000000	-1000000	-1000000	
25.06	4.332	4290.1	7.696	350.23	-1000000	-1000000	-1000000	-1000000	
25.08	4.332	4256.6	7.694	350.10	-1000000	-1000000	-1000000	-1000000	
25.10	4.332	4223.2	7.692	350.11	-1000000	-1000000	-1000000	-1000000	
25.12	4.331	4190.0	7.690	350.07	-1000000	-1000000	-1000000	-1000000	
25.14	4.331	4157.1	7.688	350.03	-1000000	-1000000	-1000000	-1000000	
25.16	4.330	4124.1	7.686	349.98	-1000000	-1000000	-1000000	-1000000	
25.18	4.330	4091.2	7.684	350.12	-1000000	-1000000	-1000000	-1000000	
25.20	4.330	4058.3	7.682	350.35	-1000000	-1000000	-1000000	-1000000	
25.22	4.329	4024.9	7.680	350.39	-1000000	-1000000	-1000000	-1000000	
25.24	4.329	3990.9	7.678	350.06	-1000000	-1000000	-1000000	-1000000	
25.26	4.328	3956.8	7.677	349.91	-1000000	-1000000	-1000000	-1000000	
25.28	4.328	3922.8	7.675	349.81	-1000000	-1000000	-1000000	-1000000	
25.30	4.328	3888.6	7.673	349.72	-1000000	-1000000	-1000000	-1000000	
25.32	4.327	3854.1	7.671	349.57	-1000000	-1000000	-1000000	-1000000	
25.34	4.327	3819.4	7.669	349.38	-1000000	-1000000	-1000000	-1000000	
25.36	4.326	3785.0	7.667	349.39	-1000000	-1000000	-1000000	-1000000	
25.38	4.326	3750.6	7.665	349.49	-1000000	-1000000	-1000000	-1000000	
25.40	4.326	3715.8	7.663	349.27	-1000000	-1000000	-1000000	-1000000	
25.42	4.325	3680.8	7.661	348.96	-1000000	-1000000	-1000000	-1000000	
25.44	4.325	3646.0	7.659	348.80	-1000000	-1000000	-1000000	-1000000	
25.46	4.323	3611.2	7.657	348.99	-1000000	-1000000	-1000000	-1000000	
25.48	4.322	3576.0	7.655	349.30	-1000000	-1000000	-1000000	-1000000	
25.50	4.321	3540.9	7.653	349.37	-1000000	-1000000	-1000000	-1000000	
25.52	4.320	3506.2	7.651	349.19	-1000000	-1000000	-1000000	-1000000	
25.54	4.320	3470.9	7.649	348.91	-1000000	-1000000	-1000000	-1000000	
25.56	4.320	3435.3	7.647	348.86	-1000000	-1000000	-1000000	-1000000	
25.58	4.319	3399.2	7.645	349.03	-1000000	-1000000	-1000000	-1000000	
25.60	4.319	3362.6	7.643	349.10	-1000000	-1000000	-1000000	-1000000	
25.62	4.318	3325.6	7.641	349.09	-1000000	-1000000	-1000000	-1000000	
25.64	4.318	3287.8	7.639	349.18	-1000000	-1000000	-1000000	-1000000	
25.66	4.318	3248.8	7.637	349.31	-1000000	-1000000	-1000000	-1000000	
25.68	4.317	3208.5	7.635	349.41	-1000000	-1000000	-1000000	-1000000	
25.70	4.317	3166.4	7.633	349.72	-1000000	-1000000	-1000000	-1000000	
25.72	4.318	3122.6	7.631	350.00	-1000000	-1000000	-1000000	-1000000	
25.74	4.319	3077.6	7.628	350.30	-1000000	-1000000	-1000000	-1000000	
25.76	4.319	3031.9	7.626	350.63	-1000000	-1000000	-1000000	-1000000	
25.78	4.318	2986.6	7.624	351.00	-1000000	-1000000	-1000000	-1000000	
25.80	4.318	2943.3	7.622	351.39	-1000000	-1000000	-1000000	-1000000	
25.82	4.317	2902.2	7.620	351.40	-1000000	-1000000	-1000000	-1000000	
25.84	4.317	2862.5	7.618	351.34	-1000000	-1000000	-1000000	-1000000	
25.86	4.316	2823.7	7.616	351.35	-1000000	-1000000	-1000000	-1000000	
25.88	4.316	2785.5	7.614	351.47	-1000000	-1000000	-1000000	-1000000	
25.90	4.316	2747.7	7.612	351.38	-1000000	-1000000	-1000000	-1000000	
25.92	4.315	2710.2	7.609	351.19	-1000000	-1000000	-1000000	-1000000	
25.94	4.315	2673.0	7.607	351.31	-1000000	-1000000	-1000000	-1000000	
25.96	4.314	2635.6	7.605	351.47	-1000000	-1000000	-1000000	-1000000	
25.98	4.314	2598.0	7.603	351.29	-1000000	-1000000	-1000000	-1000000	
26.00	4.313	2560.8	7.601	351.25	-1000000	-1000000	-1000000	-1000000	
26.02	4.313	2523.8	7.598	351.27	-1000000	-1000000	-1000000	-1000000	
26.04	4.312	2486.2	7.596	351.22	-1000000	-1000000	-1000000	-1000000	
26.06	4.312	2448.5	7.594	351.15	-1000000	-1000000	-1000000	-1000000	
26.08	4.312	2410.7	7.592	350.79	-1000000	-1000000	-1000000	-1000000	
26.10	4.311	2372.7	7.590	350.74	-1000000	-1000000	-1000000	-1000000	
26.12	4.311	2334.7	7.588	350.96	-1000000	-1000000	-1000000	-1000000	
26.14	4.310	2297.3	7.585	351.00	-1000000	-1000000	-1000000	-1000000	
26.16	4.310	2260.2	7.583	351.02	-1000000	-1000000	-1000000	-1000000	
26.18	4.309	2222.4	7.581	350.78	-1000000	-1000000	-1000000	-1000000	
26.20	4.309	2184.4	7.579	350.52	-1000000	-1000000	-1000000	-1000000	
26.22	4.308	2146.3	7.576	350.44	-1000000	-1000000	-1000000	-1000000	
26.24	4.308	2108.2	7.574	350.56	-1000000	-1000000	-1000000	-1000000	
26.26	4.307	2070.0	7.572	350.70	-1000000	-1000000	-1000000	-1000000	
26.28	4.307	2031.8	7.570	350.59	-1000000	-1000000	-1000000	-1000000	
26.30	4.306	1993.1	7.567	350.53	-1000000	-1000000	-1000000	-1000000	
26.32	4.306	1954.2	7.565	350.52	-1000000	-1000000	-1000000	-1000000	
26.34	4.306	1915.3	7.563	350.38	-1000000	-1000000	-1000000	-1000000	
26.36	4.305	1876.5	7.560	350.08	-1000000	-1000000	-1000000	-1000000	
26.38	4.305	1837.9	7.558	350.03	-1000000	-1000000	-1000000	-1000000	
26.40	4.304	1799.5	7.556	350.01	-1000000	-1000000	-1000000	-1000000	
26.42	4.304	1760.9	7.554	350.00	-1000000	-1000000	-1000000	-1000000	
26.44	4.303	1722.1	7.551	349.96	-1000000	-1000000	-1000000	-1000000	
26.46	4.303	1683.5	7.549	350.07	-1000000	-1000000	-1000000	-1000000	
26.48	4.302	1644.8	7.547	350.23	-1000000	-1000000	-1000000	-1000000	
26.50	4.302	1605.9	7.544	350.06	-1000000	-1000000	-1000000	-1000000	
26.52	4.301	1567.0	7.542	349.85	-1000000	-1000000	-1000000	-1000000	
26.54	4.301	1527.8	7.540	349.82	-1000000	-1000000	-1000000	-1000000	
26.56	4.300	1488.3	7.537	349.78	-1000000	-1000000	-1000000	-1000000	
26.58	4.300	1448.4	7.535	349.86	-1000000	-1000000	-1000000	-1000000	
26.60	4.299	1408.3	7.532	349.93	-1000000	-1000000	-1000000	-1000000	
26.62	4.299	1368.0	7.530	349.77	-1000000	-1000000	-1000000	-1000000	
26.64	4.298	1327.2	7.528	349.80	-1000000	-1000000	-1000000	-1000000	
26.66	4.298	1286.1	7.525	350.00	-1000000	-1000000	-1000000	-1000000	
26.68	4.297	1245.5	7.523	349.90	-1000000	-1000000	-1000000	-1000000	
26.70	4.297	1204.5	7.520	349.78	-1000000	-1000000	-1000000	-1000000	
26.72	4.296	1163.4	7.518	349.68	-1000000	-1000000	-1000000	-1000000	
26.74	4.296	1122.2	7.516	349.61	-1000000	-1000000	-1000000	-1000000	
26.76	4.295	1080.6	7.513	349.46	-1000000	-1000000	-1000000	-1000000	
26.78	4.295	1038.5	7.511	349.47	-1000000	-1000000	-1000000	-1000000	
26.80	4.294	996.03	7.508	349.68	-1000000	-1000000	-1000000	-1000000	
26.82	4.294	952.97	7.506	349.71	-1000000	-1000000	-1000000	-1000000	
26.84	4.293	908.87	7.503	349.67	-1000000	-1000000	-1000000	-1000000	
26.86	4.293	863.95	7.501	349.86	-1000000	-1000000	-1000000	-1000000	
26.88	4.292	818.31	7.499	350.43	-1000000	-1000000	-1000000	-1000000	
26.90	4.292	772.13	7.496	350.73	-1000000	-1000000	-1000000	-1000000	
26.92	4.291	725.50	7.494	350.53	-1000000	-1000000	-1000000	-1000000	
26.94	4.291	678.94	7.491	350.51	-1000000	-1000000	-1000000	-1000000	
26.96	4.290	633.10	7.489	350.69	-1000000	-1000000	-1000000	-1000000	
26.98	4.290	588.24	7.486	350.85	-1000000	-1000000	-1000000	-1000000	
27.00	4.289	544.21	7.484	350.84	-1000000	-1000000	-1000000	-1000000	
27.02	4.289	500.79	7.481	350.71	-1000000	-1000000	-1000000	-1000000	
27.04	4.288	458.01	7.479	350.55	-1000000	-1000000	-1000000	-1000000	
27.06	4.288	415.07	7.476	350.59	-1000000	-1000000	-1000000	-1000000	
27.08	4.287	372.05	7.473	350.66	-1000000	-1000000	-1000000	-1000000	
27.10	4.287	329.32	7.471	350.44	-1000000	-1000000	-1000000	-1000000	
27.12	4.286	286.80	7.469	350.48	-1000000	-1000000	-1000000	-1000000	
27.14	4.285	244.35	7.466	350.67	-1000000	-1000000	-1000000	-1000000	
27.16	4.285	201.51	7.463	350.51	-1000000	-1000000	-1000000	-1000000	
27.18	4.284	158.44	7.461	350.38	-1000000	-1000000	-1000000	-1000000	
27.20	4.284	115.93	7.458	350.48	-1000000	-1000000	-1000000	-1000000	
27.22	4.283	74.41	7.456	350.65	-1000000	-1000000	-1000000	-1000000	
27.24	4.283	35.78	7.453	350.76	-1000000	-1000000	-1000000	-1000000	
27.26	4.283	1.917	7.451	350.68	-1000000	-1000000	-1000000	-1000000	
27.28	4.282	-25.23	7.449	350.73	-1000000	-1000000	-1000000	-1000000	
27.30	4.282	-43.16	7.448	350.70	-1000000	-1000000	-1000000	-1000000	
27.32	4.282	-52.02	7.447	350.52	-1000000	-1000000	-1000000	-1000000	
27.34	4.282	-53.79	7.447	350.52	-1000000	-1000000	-1000000	-1000000	
27.36	4.282	-51.57	7.447	350.34	-1000000	-1000000	-1000000	-1000000	
27.38	4.282	-49.17	7.446	350.00	-1000000	-1000000	-1000000	-1000000	
27.40	4.282	-48.33	7.446	349.94	-1000000	-1000000	-1000000	-1000000	
27.42	4.282	-48.39	7.446	350.00	-1000000	-1000000	-1000000	-1000000	
27.44	4.282	-48.59	7.446	350.15	-1000000	-1000000	-1000000	-1000000	
27.46	4.282	-48.65	7.446	350.08	-1000000	-1000000	-1000000	-1000000	
27.48	4.282	-48.41	7.446	349.94	-1000000	-1000000	-1000000	-1000000	
27.50	4.282	-48.29	7.446	349.92	-1000000	-1000000	-1000000	-1000000	
27.52	4.282	-48.26	7.446	350.02	-1000000	-1000000	-1000000	-1000000	
27.54	4.282	-48.22	7.446	349.85	-1000000	-1000000	-1000000	-1000000	
27.56	4.282	-48.24	7.446	349.52	-1000000	-1000000	-1000000	-1000000	
27.58	4.282	-48.34	7.446	349.47	-1000000	-1000000	-1000000	-1000000	
27.60	4.282	-48.29	7.446	349.58	-1000000	-1000000	-1000000	-1000000	
27.62	4.282	-48.30	7.446	349.50	-1000000	-1000000	-1000000	-1000000	
27.64	4.282	-48.35	7.446	349.48	-1000000	-1000000	-1000000	-1000000	
27.66	4.281	-48.18	7.446	349.41	-1000000	-1000000	-1000000	-1000000	
27.68	4.281	-48.15	7.447	349.25	-1000000	-1000000	-1000000	-1000000	
27.70	4.281	-48.24	7.446	349.29	-1000000	-1000000	-1000000	-1000000	
27.72	4.281	-48.17	7.446	349.68	-1000000	-1000000	-1000000	-1000000	
27.74	4.281	-48.04	7.446	349.80	-1000000	-1000000	-1000000	-1000000	
27.76	4.281	-48.15	7.446	349.50	-1000000	-1000000	-1000000	-1000000	
27.78	4.281	-48.27	7.446	349.35	-1000000	-1000000	-1000000	-1000000	
27.80	4.281	-48.25	7.446	349.54	-1000000	-1000000	-1000000	-1000000	
27.82	4.281	-48.21	7.446	349.67	-1000000	-1000000	-1000000	-1000000	
27.84	4.281	-46.07	7.446	349.70	-1000000	-1000000	-1000000	-1000000	
27.86	4.281	-19.26	7.446	349.91	-1000000	-1000000	-1000000	-1000000	
27.88	4.281	13.59	7.446	350.39	-1000000	-1000000	-1000000	-1000000	
27.90	4.281	27.08	7.446	350.45	-1000000	-1000000	-1000000	-1000000	
27.92	4.281	26.80	7.446	350.47	-1000000	-1000000	-1000000	-1000000	
27.94	4.281	23.46	7.446	350.34	-1000000	-1000000	-1000000	-1000000	
27.96	4.281	22.38	7.446	350.48	-1000000	-1000000	-1000000	-1000000	
27.98	4.281	22.20	7.446	350.73	-1000000	-1000000	-1000000	-1000000	
28.00	4.281	21.84	7.446	350.79	-1000000	-1000000	-1000000	-1000000	
28.02	4.281	22.20	7.446	350.71	-1000000	-1000000	-1000000	-1000000	
28.04	4.281	22.62	7.447	350.83	-1000000	-1000000	-1000000	-1000000	
28.06	4.281	23.62	7.446	350.88	-1000000	-1000000	-1000000	-1000000	
28.08	4.281	25.25	7.446	350.84	-1000000	-1000000	-1000000	-1000000	
28.10	4.281	27.02	7.446	350.86	-1000000	-1000000	-1000000	-1000000	
28.12	4.281	29.06	7.446	350.76	-1000000	-1000000	-1000000	-1000000	
28.14	4.281	31.08	7.446	350.63	-1000000	-1000000	-1000000	-1000000	
28.16	4.281	33.13	7.446	350.73	-1000000	-1000000	-1000000	-1000000	
28.18	4.281	35.06	7.446	350.86	-1000000	-1000000	-1000000	-1000000	
28.20	4.281	37.10	7.446	350.93	-1000000	-1000000	-1000000	-1000000	
28.22	4.281	39.44	7.446	350.94	-1000000	-1000000	-1000000	-1000000	
28.24	4.281	41.86	7.446	350.70	-1000000	-1000000	-1000000	-1000000	
28.26	4.281	43.99	7.446	350.48	-1000000	-1000000	-1000000	-1000000	
28.28	4.281	46.12	7.446	350.39	-1000000	-1000000	-1000000	-1000000	
28.30	4.281	48.15	7.446	350.39	-1000000	-1000000	-1000000	-1000000	
28.32	4.281	50.11	7.447	350.14	-1000000	-1000000	-1000000	-1000000	
28.34	4.281	52.26	7.447	349.98	-1000000	-1000000	-1000000	-1000000	
28.36	4.281	54.40	7.446	350.14	-1000000	-1000000	-1000000	-1000000	
28.38	4.281	56.38	7.446	350.36	-1000000	-1000000	-1000000	-1000000	
28.40	4.281	58.44	7.446	350.32	-1000000	-1000000	-1000000	-1000000	
28.42	4.281	60.84	7.446	350.10	-1000000	-1000000	-1000000	-1000000	
28.44	4.281	63.38	7.446	349.91	-1000000	-1000000	-1000000	-1000000	
28.46	4.281	65.80	7.446	349.85	-1000000	-1000000	-1000000	-1000000	
28.48	4.281	68.03	7.446	349.75	-1000000	-1000000	-1000000	-1000000	
28.50	4.281	70.13	7.446	349.72	-1000000	-1000000	-1000000	-1000000	
28.52	4.280	71.97	7.446	349.68	-1000000	-1000000	-1000000	-1000000	
28.54	4.280	73.94	7.446	349.70	-1000000	-1000000	-1000000	-1000000	
28.56	4.280	76.13	7.446	349.81	-1000000	-1000000	-1000000	-1000000	
28.58	4.280	78.45	7.446	349.78	-1000000	-1000000	-1000000	-1000000	
28.60	4.280	80.84	7.446	349.78	-1000000	-1000000	-1000000	-1000000	
28.62	4.280	82.77	7.446	349.63	-1000000	-1000000	-1000000	-1000000	
28.64	4.280	84.50	7.446	349.54	-1000000	-1000000	-1000000	-1000000	
28.66	4.280	86.41	7.446	349.51	-1000000	-1000000	-1000000	-1000000	
28.68	4.280	88.53	7.446	349.31	-1000000	-1000000	-1000000	-1000000	
28.70	4.280	90.47	7.446	349.32	-1000000	-1000000	-1000000	-1000000	
28.72	4.280	92.06	7.446	349.33	-1000000	-1000000	-1000000	-1000000	
28.74	4.280	93.27	7.446	349.06	-1000000	-1000000	-1000000	-1000000	
28.76	4.280	94.19	7.446	348.75	-1000000	-1000000	-1000000	-1000000	
28.78	4.280	95.03	7.446	348.84	-1000000	-1000000	-1000000	-1000000	
28.80	4.280	95.72	7.446	349.06	-1000000	-1000000	-1000000	-1000000	
28.82	4.280	95.46	7.446	349.17	-1000000	-1000000	-1000000	-1000000	
28.84	4.280	94.88	7.446	349.28	-1000000	-1000000	-1000000	-1000000	
28.86	4.280	94.01	7.446	349.31	-1000000	-1000000	-1000000	-1000000	
28.88	4.280	92.52	7.446	349.33	-1000000	-1000000	-1000000	-1000000	
28.90	4.280	91.17	7.446	349.22	-1000000	-1000000	-1000000	-1000000	
28.92	4.280	90.13	7.446	349.31	-1000000	-1000000	-1000000	-1000000	
28.94	4.280	89.65	7.446	349.51	-1000000	-1000000	-1000000	-1000000	
28.96	4.280	89.48	7.446	349.58	-1000000	-1000000	-1000000	-1000000	
28.98	4.280	89.42	7.446	349.64	-1000000	-1000000	-1000000	-1000000	
29.00	4.280	89.40	7.446	349.80	-1000000	-1000000	-1000000	-1000000	
29.02	4.280	89.70	7.446	349.84	-1000000	-1000000	-1000000	-1000000	
29.04	4.280	90.61	7.446	349.69	-1000000	-1000000	-1000000	-1000000	
29.06	4.280	91.73	7.446	349.50	-1000000	-1000000	-1000000	-1000000	
29.08	4.280	92.77	7.446	349.63	-1000000	-1000000	-1000000	-1000000	
29.10	4.280	93.78	7.446	349.66	-1000000	-1000000	-1000000	-1000000	
29.12	4.280	94.88	7.446	349.55	-1000000	-1000000	-1000000	-1000000	
29.14	4.280	96.28	7.446	349.26	-1000000	-1000000	-1000000	-1000000	
29.16	4.280	98.02	7.446	349.14	-1000000	-1000000	-1000000	-1000000	
29.18	4.280	99.79	7.446	349.32	-1000000	-1000000	-1000000	-1000000	
29.20	4.280	101.11	7.446	349.46	-1000000	-1000000	-1000000	-1000000	
29.22	4.280	102.26	7.446	349.36	-1000000	-1000000	-1000000	-1000000	
29.24	4.280	103.42	7.446	349.27	-1000000	-1000000	-1000000	-1000000	
29.26	4.280	104.97	7.446	349.31	-1000000	-1000000	-1000000	-1000000	
29.28	4.280	106.59	7.446	349.28	-1000000	-1000000	-1000000	-1000000	
29.30	4.280	108.17	7.446	349.21	-1000000	-1000000	-1000000	-1000000	
29.32	4.280	109.71	7.446	349.08	-1000000	-1000000	-1000000	-1000000	
29.34	4.280	111.38	7.446	349.08	-1000000	-1000000	-1000000	-1000000	
29.36	4.280	113.18	7.446	349.01	-1000000	-1000000	-1000000	-1000000	
29.38	4.280	114.80	7.446	348.88	-1000000	-1000000	-1000000	-1000000	
29.40	4.280	116.25	7.446	348.66	-1000000	-1000000	-1000000	-1000000	
29.42	4.280	117.58	7.446	348.59	-1000000	-1000000	-1000000	-1000000	
29.44	4.280	118.91	7.446	348.82	-1000000	-1000000	-1000000	-1000000	
29.46	4.280	120.61	7.446	348.79	-1000000	-1000000	-1000000	-1000000	
29.48	4.279	122.51	7.446	348.54	-1000000	-1000000	-1000000	-1000000	
29.50	4.279	124.21	7.446	348.42	-1000000	-1000000	-1000000	-1000000	
29.52	4.280	126.16	7.446	348.55	-1000000	-1000000	-1000000	-1000000	
29.54	4.280	128.18	7.446	348.59	-1000000	-1000000	-1000000	-1000000	
29.56	4.280	129.61	7.446	348.72	-1000000	-1000000	-1000000	-1000000	
29.58	4.279	131.04	7.446	348.66	-1000000	-1000000	-1000000	-1000000	
29.60	4.279	132.59	7.446	348.54	-1000000	-1000000	-1000000	-1000000	
29.62	4.279	133.93	7.446	348.53	-1000000	-1000000	-1000000	-1000000	
29.64	4.279	135.23	7.446	348.36	-1000000	-1000000	-1000000	-1000000	
29.66	4.279	136.90	7.446	348.37	-1000000	-1000000	-1000000	-1000000	
29.68	4.279	138.70	7.446	348.35	-1000000	-1000000	-1000000	-1000000	
29.70	4.279	140.07	7.446	348.36	-1000000	-1000000	-1000000	-1000000	
29.72	4.279	141.48	7.446	348.21	-1000000	-1000000	-1000000	-1000000	
29.74	4.279	143.52	7.446	348.11	-1000000	-1000000	-1000000	-1000000	
29.76	4.279	145.57	7.446	348.13	-1000000	-1000000	-1000000	-1000000	
29.78	4.279	147.34	7.446	348.30	-1000000	-1000000	-1000000	-1000000	
29.80	4.279	149.27	7.446	348.16	-1000000	-1000000	-1000000	-1000000	
29.82	4.279	150.89	7.446	348.04	-1000000	-1000000	-1000000	-1000000	
29.84	4.279	152.10	7.446	347.93	-1000000	-1000000	-1000000	-1000000	
29.86	4.279	153.43	7.446	348.06	-1000000	-1000000	-1000000	-1000000	
29.88	4.279	155.16	7.446	348.15	-1000000	-1000000	-1000000	-1000000	
29.90	4.279	156.40	7.446	348.03	-1000000	-1000000	-1000000	-1000000	
29.92	4.279	157.69	7.446	347.68	-1000000	-1000000	-1000000	-1000000	
29.94	4.279	159.24	7.446	347.59	-1000000	-1000000	-1000000	-1000000	
29.96	4.279	160.64	7.446	347.62	-1000000	-1000000	-1000000	-1000000	
29.98	4.279	162.01	7.446	347.63	-1000000	-1000000	-1000000	-1000000	
30.00	4.279	163.78	7.446	347.53	-1000000	-1000000	-1000000	-1000000	
30.02	4.279	165.54	7.446	347.51	-1000000	-1000000	-1000000	-1000000	
30.04	4.279	167.09	7.446	347.42	-1000000	-1000000	-1000000	-1000000	
30.06	4.279	168.60	7.446	347.46	-1000000	-1000000	-1000000	-1000000	
30.08	4.279	170.51	7.446	347.51	-1000000	-1000000	-1000000	-1000000	
30.10	4.279	172.70	7.446	347.71	-1000000	-1000000	-1000000	-1000000	
30.12	4.279	174.68	7.446	347.74	-1000000	-1000000	-1000000	-1000000	
30.14	4.279	176.35	7.446	347.56	-1000000	-1000000	-1000000	-1000000	
30.16	4.279	177.90	7.446	347.36	-1000000	-1000000	-1000000	-1000000	
30.18	4.279	179.30	7.446	347.34	-1000000	-1000000	-1000000	-1000000	
30.20	4.279	180.67	7.446	347.47	-1000000	-1000000	-1000000	-1000000	
30.22	4.279	182.12	7.446	347.43	-1000000	-1000000	-1000000	-1000000	
30.24	4.279	183.68	7.446	347.39	-1000000	-1000000	-1000000	-1000000	
30.26	4.279	185.34	7.446	347.32	-1000000	-1000000	-1000000	-1000000	
30.28	4.279	186.99	7.446	347.10	-1000000	-1000000	-1000000	-1000000	
30.30	4.279	188.31	7.446	346.88	-1000000	-1000000	-1000000	-1000000	
30.32	4.279	189.56	7.446	346.99	-1000000	-1000000	-1000000	-1000000	
30.34	4.279	191.11	7.446	347.12	-1000000	-1000000	-1000000	-1000000	
30.36	4.279	192.66	7.446	346.97	-1000000	-1000000	-1000000	-1000000	
30.38	4.279	193.94	7.446	346.90	-1000000	-1000000	-1000000	-1000000	
30.40	4.279	195.47	7.446	347.06	-1000000	-1000000	-1000000	-1000000	
30.42	4.279	197.14	7.446	347.07	-1000000	-1000000	-1000000	-1000000	
30.44	4.279	198.51	7.446	346.88	-1000000	-1000000	-1000000	-1000000	
30.46	4.279	199.75	7.446	346.71	-1000000	-1000000	-1000000	-1000000	
30.48	4.279	201.28	7.446	346.64	-1000000	-1000000	-1000000	-1000000	
30.50	4.279	202.67	7.446	346.57	-1000000	-1000000	-1000000	-1000000	
30.52	4.278	203.93	7.446	346.60	-1000000	-1000000	-1000000	-1000000	
30.54	4.278	205.50	7.447	346.71	-1000000	-1000000	-1000000	-1000000	
30.56	4.278	207.01	7.446	346.69	-1000000	-1000000	-1000000	-1000000	
30.58	4.278	208.42	7.446	346.54	-1000000	-1000000	-1000000	-1000000	
30.60	4.278	209.92	7.447	346.39	-1000000	-1000000	-1000000	-1000000	
30.62	4.278	211.56	7.446	346.34	-1000000	-1000000	-1000000	-1000000	
30.64	4.278	213.03	7.446	346.34	-1000000	-1000000	-1000000	-1000000	
30.66	4.278	214.35	7.446	346.19	-1000000	-1000000	-1000000	-1000000	
30.68	4.278	215.79	7.446	346.10	-1000000	-1000000	-1000000	-1000000	
30.70	4.278	216.89	7.446	346.04	-1000000	-1000000	-1000000	-1000000	
30.72	4.278	218.13	7.446	345.94	-1000000	-1000000	-1000000	-1000000	
30.74	4.278	219.75	7.446	346.21	-1000000	-1000000	-1000000	-1000000	
30.76	4.278	221.49	7.446	346.40	-1000000	-1000000	-1000000	-1000000	
30.78	4.278	223.18	7.446	346.29	-1000000	-1000000	-1000000	-1000000	
30.80	4.278	224.57	7.446	346.08	-1000000	-1000000	-1000000	-1000000	
30.82	4.278	225.92	7.446	345.89	-1000000	-1000000	-1000000	-1000000	
30.84	4.278	227.24	7.446	345.71	-1000000	-1000000	-1000000	-1000000	
30.86	4.278	228.56	7.446	345.61	-1000000	-1000000	-1000000	-1000000	
30.88	4.278	229.82	7.446	345.64	-1000000	-1000000	-1000000	-1000000	
30.90	4.278	231.03	7.446	345.76	-1000000	-1000000	-1000000	-1000000	
30.92	4.278	232.42	7.446	345.67	-1000000	-1000000	-1000000	-1000000	
30.94	4.278	233.68	7.446	345.52	-1000000	-1000000	-1000000	-1000000	
30.96	4.278	235.07	7.446	345.50	-1000000	-1000000	-1000000	-1000000	
30.98	4.278	236.51	7.446	345.67	-1000000	-1000000	-1000000	-1000000	
31.00	4.278	237.99	7.446	345.70	-1000000	-1000000	-1000000	-1000000	
31.02	4.278	239.23	7.446	345.61	-1000000	-1000000	-1000000	-1000000	
31.04	4.278	240.68	7.446	345.60	-1000000	-1000000	-1000000	-1000000	
31.06	4.278	242.04	7.446	345.51	-1000000	-1000000	-1000000	-1000000	
31.08	4.278	243.34	7.446	345.41	-1000000	-1000000	-1000000	-1000000	