Zeit  1 - Standardmessrate [s]	Maytec [mm]	Kraft [N]	Standardwegaufnehmer [mm]	Pyrometer [°C]	Drehwinkel [V]	MX840_0_CH 6 [V]	MX840_0_CH 7 [V]	MX840_0_CH 8 [V]
0	-0.08017	133.08	0.8222	300.12	-1000000	-1000000	-1000000	-1000000	
0.02000	-0.08023	133.04	0.8222	300.14	-1000000	-1000000	-1000000	-1000000	
0.04000	-0.08022	132.87	0.8221	300.15	-1000000	-1000000	-1000000	-1000000	
0.06000	-0.08020	132.81	0.8221	300.14	-1000000	-1000000	-1000000	-1000000	
0.08000	-0.08016	133.06	0.8221	300.12	-1000000	-1000000	-1000000	-1000000	
0.1000	-0.08013	133.37	0.8220	300.13	-1000000	-1000000	-1000000	-1000000	
0.1200	-0.08012	133.28	0.8220	300.15	-1000000	-1000000	-1000000	-1000000	
0.1400	-0.08010	133.04	0.8223	300.15	-1000000	-1000000	-1000000	-1000000	
0.1600	-0.08011	133.00	0.8226	300.13	-1000000	-1000000	-1000000	-1000000	
0.1800	-0.08014	133.05	0.8227	300.12	-1000000	-1000000	-1000000	-1000000	
0.2000	-0.08012	133.17	0.8228	300.13	-1000000	-1000000	-1000000	-1000000	
0.2200	-0.08013	133.14	0.8228	300.15	-1000000	-1000000	-1000000	-1000000	
0.2400	-0.08015	133.04	0.8228	300.15	-1000000	-1000000	-1000000	-1000000	
0.2600	-0.08010	132.97	0.8228	300.12	-1000000	-1000000	-1000000	-1000000	
0.2800	-0.08004	133.00	0.8228	300.12	-1000000	-1000000	-1000000	-1000000	
0.3000	-0.08000	133.04	0.8228	300.14	-1000000	-1000000	-1000000	-1000000	
0.3200	-0.08000	133.04	0.8228	300.15	-1000000	-1000000	-1000000	-1000000	
0.3400	-0.08000	133.09	0.8228	300.14	-1000000	-1000000	-1000000	-1000000	
0.3600	-0.08003	133.10	0.8228	300.12	-1000000	-1000000	-1000000	-1000000	
0.3800	-0.08004	133.09	0.8228	300.12	-1000000	-1000000	-1000000	-1000000	
0.4000	-0.08007	133.06	0.8227	300.14	-1000000	-1000000	-1000000	-1000000	
0.4200	-0.08007	133.01	0.8228	300.15	-1000000	-1000000	-1000000	-1000000	
0.4400	-0.07998	132.91	0.8230	300.13	-1000000	-1000000	-1000000	-1000000	
0.4600	-0.07990	133.18	0.8233	300.12	-1000000	-1000000	-1000000	-1000000	
0.4800	-0.07988	133.90	0.8234	300.13	-1000000	-1000000	-1000000	-1000000	
0.5000	-0.07993	133.98	0.8234	300.15	-1000000	-1000000	-1000000	-1000000	
0.5200	-0.07995	133.42	0.8234	300.14	-1000000	-1000000	-1000000	-1000000	
0.5400	-0.07995	133.09	0.8234	300.12	-1000000	-1000000	-1000000	-1000000	
0.5600	-0.07992	133.03	0.8234	300.11	-1000000	-1000000	-1000000	-1000000	
0.5800	-0.07987	132.96	0.8235	300.13	-1000000	-1000000	-1000000	-1000000	
0.6000	-0.07987	132.95	0.8235	300.15	-1000000	-1000000	-1000000	-1000000	
0.6200	-0.07986	132.99	0.8235	300.14	-1000000	-1000000	-1000000	-1000000	
0.6400	-0.07985	133.08	0.8235	300.12	-1000000	-1000000	-1000000	-1000000	
0.6600	-0.07982	133.14	0.8235	300.12	-1000000	-1000000	-1000000	-1000000	
0.6800	-0.07982	133.12	0.8234	300.14	-1000000	-1000000	-1000000	-1000000	
0.7000	-0.07985	133.06	0.8234	300.15	-1000000	-1000000	-1000000	-1000000	
0.7200	-0.07982	133.12	0.8233	300.13	-1000000	-1000000	-1000000	-1000000	
0.7400	-0.07977	133.12	0.8234	300.11	-1000000	-1000000	-1000000	-1000000	
0.7600	-0.07973	132.96	0.8236	300.13	-1000000	-1000000	-1000000	-1000000	
0.7800	-0.07969	132.92	0.8240	300.15	-1000000	-1000000	-1000000	-1000000	
0.8000	-0.07968	132.94	0.8241	300.14	-1000000	-1000000	-1000000	-1000000	
0.8200	-0.07971	132.94	0.8241	300.12	-1000000	-1000000	-1000000	-1000000	
0.8400	-0.07970	132.92	0.8241	300.12	-1000000	-1000000	-1000000	-1000000	
0.8600	-0.07971	133.20	0.8241	300.14	-1000000	-1000000	-1000000	-1000000	
0.8800	-0.07969	134.04	0.8242	300.15	-1000000	-1000000	-1000000	-1000000	
0.9000	-0.07965	134.67	0.8241	300.14	-1000000	-1000000	-1000000	-1000000	
0.9200	-0.07969	134.90	0.8241	300.12	-1000000	-1000000	-1000000	-1000000	
0.9400	-0.07971	134.79	0.8241	300.12	-1000000	-1000000	-1000000	-1000000	
0.9600	-0.07969	134.44	0.8242	300.14	-1000000	-1000000	-1000000	-1000000	
0.9800	-0.07966	133.68	0.8242	300.15	-1000000	-1000000	-1000000	-1000000	
1.000	-0.07964	133.17	0.8241	300.13	-1000000	-1000000	-1000000	-1000000	
1.020	-0.07964	132.99	0.8241	300.12	-1000000	-1000000	-1000000	-1000000	
1.040	-0.07961	133.02	0.8241	300.13	-1000000	-1000000	-1000000	-1000000	
1.060	-0.07955	133.07	0.8242	300.15	-1000000	-1000000	-1000000	-1000000	
1.080	-0.07958	133.20	0.8242	300.14	-1000000	-1000000	-1000000	-1000000	
1.100	-0.07963	133.33	0.8244	300.12	-1000000	-1000000	-1000000	-1000000	
1.120	-0.07964	133.39	0.8246	300.12	-1000000	-1000000	-1000000	-1000000	
1.140	-0.07962	133.38	0.8247	300.14	-1000000	-1000000	-1000000	-1000000	
1.160	-0.07954	133.26	0.8248	300.15	-1000000	-1000000	-1000000	-1000000	
1.180	-0.07952	133.21	0.8248	300.14	-1000000	-1000000	-1000000	-1000000	
1.200	-0.07952	133.09	0.8249	300.12	-1000000	-1000000	-1000000	-1000000	
1.220	-0.07953	132.91	0.8248	300.13	-1000000	-1000000	-1000000	-1000000	
1.240	-0.07953	132.91	0.8247	300.15	-1000000	-1000000	-1000000	-1000000	
1.260	-0.07954	133.14	0.8248	300.15	-1000000	-1000000	-1000000	-1000000	
1.280	-0.07954	133.20	0.8248	300.13	-1000000	-1000000	-1000000	-1000000	
1.300	-0.07950	133.10	0.8247	300.12	-1000000	-1000000	-1000000	-1000000	
1.320	-0.07947	133.06	0.8247	300.13	-1000000	-1000000	-1000000	-1000000	
1.340	-0.07948	133.04	0.8247	300.15	-1000000	-1000000	-1000000	-1000000	
1.360	-0.07950	133.14	0.8248	300.15	-1000000	-1000000	-1000000	-1000000	
1.380	-0.07949	132.98	0.8248	300.12	-1000000	-1000000	-1000000	-1000000	
1.400	-0.07948	132.90	0.8248	300.12	-1000000	-1000000	-1000000	-1000000	
1.420	-0.07951	133.02	0.8250	300.14	-1000000	-1000000	-1000000	-1000000	
1.440	-0.07950	133.16	0.8252	300.15	-1000000	-1000000	-1000000	-1000000	
1.460	-0.07940	133.13	0.8254	300.14	-1000000	-1000000	-1000000	-1000000	
1.480	-0.07931	132.97	0.8255	300.12	-1000000	-1000000	-1000000	-1000000	
1.500	-0.07934	132.87	0.8256	300.12	-1000000	-1000000	-1000000	-1000000	
1.520	-0.07937	132.86	0.8256	300.14	-1000000	-1000000	-1000000	-1000000	
1.540	-0.07936	132.89	0.8256	300.15	-1000000	-1000000	-1000000	-1000000	
1.560	-0.07937	132.94	0.8255	300.13	-1000000	-1000000	-1000000	-1000000	
1.580	-0.07935	133.02	0.8255	300.12	-1000000	-1000000	-1000000	-1000000	
1.600	-0.07935	133.03	0.8255	300.13	-1000000	-1000000	-1000000	-1000000	
1.620	-0.07934	132.96	0.8255	300.15	-1000000	-1000000	-1000000	-1000000	
1.640	-0.07926	132.95	0.8255	300.15	-1000000	-1000000	-1000000	-1000000	
1.660	-0.07922	133.10	0.8255	300.13	-1000000	-1000000	-1000000	-1000000	
1.680	-0.07926	133.18	0.8255	300.12	-1000000	-1000000	-1000000	-1000000	
1.700	-0.07926	133.16	0.8256	300.13	-1000000	-1000000	-1000000	-1000000	
1.720	-0.07924	132.96	0.8256	300.15	-1000000	-1000000	-1000000	-1000000	
1.740	-0.07925	133.00	0.8258	300.14	-1000000	-1000000	-1000000	-1000000	
1.760	-0.07924	133.09	0.8261	300.12	-1000000	-1000000	-1000000	-1000000	
1.780	-0.07926	133.01	0.8262	300.12	-1000000	-1000000	-1000000	-1000000	
1.800	-0.07923	132.96	0.8262	300.14	-1000000	-1000000	-1000000	-1000000	
1.820	-0.07917	133.09	0.8261	300.15	-1000000	-1000000	-1000000	-1000000	
1.840	-0.07914	133.17	0.8261	300.13	-1000000	-1000000	-1000000	-1000000	
1.860	-0.07916	133.00	0.8262	300.12	-1000000	-1000000	-1000000	-1000000	
1.880	-0.07921	132.92	0.8262	300.15	-1000000	-1000000	-1000000	-1000000	
1.900	-0.07921	132.93	0.8262	300.16	-1000000	-1000000	-1000000	-1000000	
1.920	-0.07920	132.97	0.8262	300.15	-1000000	-1000000	-1000000	-1000000	
1.940	-0.07921	133.06	0.8262	300.13	-1000000	-1000000	-1000000	-1000000	
1.960	-0.07919	133.09	0.8262	300.11	-1000000	-1000000	-1000000	-1000000	
1.980	-0.07912	133.07	0.8261	300.13	-1000000	-1000000	-1000000	-1000000	
2.000	-0.07903	133.07	0.8261	300.15	-1000000	-1000000	-1000000	-1000000	
2.020	-0.07901	133.22	0.8261	300.15	-1000000	-1000000	-1000000	-1000000	
2.040	-0.07905	134.00	0.8261	300.12	-1000000	-1000000	-1000000	-1000000	
2.060	-0.07903	134.56	0.8262	300.12	-1000000	-1000000	-1000000	-1000000	
2.080	-0.07902	134.63	0.8264	300.14	-1000000	-1000000	-1000000	-1000000	
2.100	-0.07907	134.66	0.8267	300.15	-1000000	-1000000	-1000000	-1000000	
2.120	-0.07910	134.73	0.8268	300.14	-1000000	-1000000	-1000000	-1000000	
2.140	-0.07904	134.08	0.8269	300.12	-1000000	-1000000	-1000000	-1000000	
2.160	-0.07901	133.46	0.8268	300.12	-1000000	-1000000	-1000000	-1000000	
2.180	-0.07898	133.11	0.8268	300.14	-1000000	-1000000	-1000000	-1000000	
2.200	-0.07899	133.04	0.8268	300.15	-1000000	-1000000	-1000000	-1000000	
2.220	-0.07901	133.04	0.8268	300.13	-1000000	-1000000	-1000000	-1000000	
2.240	-0.07903	133.00	0.8268	300.12	-1000000	-1000000	-1000000	-1000000	
2.260	-0.07900	133.00	0.8268	300.13	-1000000	-1000000	-1000000	-1000000	
2.280	-0.07899	133.03	0.8268	300.15	-1000000	-1000000	-1000000	-1000000	
2.300	-0.07902	133.07	0.8268	300.14	-1000000	-1000000	-1000000	-1000000	
2.320	-0.07900	132.85	0.8268	300.12	-1000000	-1000000	-1000000	-1000000	
2.340	-0.07894	132.79	0.8268	300.12	-1000000	-1000000	-1000000	-1000000	
2.360	-0.07888	132.84	0.8268	300.14	-1000000	-1000000	-1000000	-1000000	
2.380	-0.07887	132.86	0.8268	300.15	-1000000	-1000000	-1000000	-1000000	
2.400	-0.07887	133.02	0.8271	300.14	-1000000	-1000000	-1000000	-1000000	
2.420	-0.07892	133.01	0.8273	300.12	-1000000	-1000000	-1000000	-1000000	
2.440	-0.07897	132.87	0.8274	300.12	-1000000	-1000000	-1000000	-1000000	
2.460	-0.07893	132.92	0.8274	300.15	-1000000	-1000000	-1000000	-1000000	
2.480	-0.07886	132.98	0.8274	300.15	-1000000	-1000000	-1000000	-1000000	
2.500	-0.07878	133.07	0.8275	300.13	-1000000	-1000000	-1000000	-1000000	
2.520	-0.07879	133.19	0.8275	300.11	-1000000	-1000000	-1000000	-1000000	
2.540	-0.07881	133.19	0.8276	300.13	-1000000	-1000000	-1000000	-1000000	
2.560	-0.07880	133.11	0.8275	300.15	-1000000	-1000000	-1000000	-1000000	
2.580	-0.07880	132.97	0.8274	300.14	-1000000	-1000000	-1000000	-1000000	
2.600	-0.07878	132.87	0.8274	300.12	-1000000	-1000000	-1000000	-1000000	
2.620	-0.07879	133.01	0.8275	300.11	-1000000	-1000000	-1000000	-1000000	
2.640	-0.07878	133.08	0.8275	300.13	-1000000	-1000000	-1000000	-1000000	
2.660	-0.07876	133.00	0.8275	300.15	-1000000	-1000000	-1000000	-1000000	
2.680	-0.07873	132.94	0.8275	300.13	-1000000	-1000000	-1000000	-1000000	
2.700	-0.07872	132.92	0.8274	300.11	-1000000	-1000000	-1000000	-1000000	
2.720	-0.07872	133.03	0.8274	300.12	-1000000	-1000000	-1000000	-1000000	
2.740	-0.07874	132.97	0.8276	300.14	-1000000	-1000000	-1000000	-1000000	
2.760	-0.07874	132.61	0.8279	300.15	-1000000	-1000000	-1000000	-1000000	
2.780	-0.07870	132.63	0.8281	300.13	-1000000	-1000000	-1000000	-1000000	
2.800	-0.07871	132.87	0.8282	300.12	-1000000	-1000000	-1000000	-1000000	
2.820	-0.07870	132.87	0.8282	300.14	-1000000	-1000000	-1000000	-1000000	
2.840	-0.07868	132.89	0.8282	300.15	-1000000	-1000000	-1000000	-1000000	
2.860	-0.07867	132.97	0.8282	300.15	-1000000	-1000000	-1000000	-1000000	
2.880	-0.07865	133.03	0.8281	300.12	-1000000	-1000000	-1000000	-1000000	
2.900	-0.07866	133.13	0.8281	300.12	-1000000	-1000000	-1000000	-1000000	
2.920	-0.07865	133.07	0.8281	300.14	-1000000	-1000000	-1000000	-1000000	
2.940	-0.07864	133.12	0.8281	300.15	-1000000	-1000000	-1000000	-1000000	
2.960	-0.07865	133.22	0.8281	300.14	-1000000	-1000000	-1000000	-1000000	
2.980	-0.07866	133.23	0.8281	300.12	-1000000	-1000000	-1000000	-1000000	
3.000	-0.07867	133.20	0.8281	300.13	-1000000	-1000000	-1000000	-1000000	
3.020	-0.07863	133.16	0.8281	300.15	-1000000	-1000000	-1000000	-1000000	
3.040	-0.07859	133.12	0.8281	300.15	-1000000	-1000000	-1000000	-1000000	
3.060	-0.07858	132.95	0.8282	300.13	-1000000	-1000000	-1000000	-1000000	
3.080	-0.07860	133.02	0.8285	300.12	-1000000	-1000000	-1000000	-1000000	
3.100	-0.07858	133.17	0.8288	300.13	-1000000	-1000000	-1000000	-1000000	
3.120	-0.07856	132.96	0.8289	300.15	-1000000	-1000000	-1000000	-1000000	
3.140	-0.07853	132.05	0.8289	300.14	-1000000	-1000000	-1000000	-1000000	
3.160	-0.07850	131.40	0.8289	300.12	-1000000	-1000000	-1000000	-1000000	
3.180	-0.07848	130.80	0.8289	300.12	-1000000	-1000000	-1000000	-1000000	
3.200	-0.07843	129.97	0.8290	300.14	-1000000	-1000000	-1000000	-1000000	
3.220	-0.07840	129.11	0.8290	300.15	-1000000	-1000000	-1000000	-1000000	
3.240	-0.07837	127.89	0.8289	300.14	-1000000	-1000000	-1000000	-1000000	
3.260	-0.07834	125.99	0.8289	300.12	-1000000	-1000000	-1000000	-1000000	
3.280	-0.07831	123.91	0.8290	300.12	-1000000	-1000000	-1000000	-1000000	
3.300	-0.07824	121.13	0.8293	300.14	-1000000	-1000000	-1000000	-1000000	
3.320	-0.07813	116.63	0.8295	300.15	-1000000	-1000000	-1000000	-1000000	
3.340	-0.07794	109.71	0.8296	300.13	-1000000	-1000000	-1000000	-1000000	
3.360	-0.07764	98.50	0.8298	300.12	-1000000	-1000000	-1000000	-1000000	
3.380	-0.07722	81.15	0.8301	300.13	-1000000	-1000000	-1000000	-1000000	
3.400	-0.07667	54.27	0.8305	300.15	-1000000	-1000000	-1000000	-1000000	
3.420	-0.07597	15.96	0.8310	300.14	-1000000	-1000000	-1000000	-1000000	
3.440	-0.07510	-30.33	0.8319	300.12	-1000000	-1000000	-1000000	-1000000	
3.460	-0.07404	-79.65	0.8332	300.12	-1000000	-1000000	-1000000	-1000000	
3.480	-0.07286	-126.56	0.8352	300.14	-1000000	-1000000	-1000000	-1000000	
3.500	-0.07170	-164.53	0.8381	300.15	-1000000	-1000000	-1000000	-1000000	
3.520	-0.07050	-189.59	0.8416	300.14	-1000000	-1000000	-1000000	-1000000	
3.540	-0.06929	-202.68	0.8456	300.12	-1000000	-1000000	-1000000	-1000000	
3.560	-0.06809	-207.89	0.8499	300.12	-1000000	-1000000	-1000000	-1000000	
3.580	-0.06694	-209.17	0.8543	300.14	-1000000	-1000000	-1000000	-1000000	
3.600	-0.06580	-209.00	0.8587	300.15	-1000000	-1000000	-1000000	-1000000	
3.620	-0.06465	-209.03	0.8631	300.14	-1000000	-1000000	-1000000	-1000000	
3.640	-0.06350	-209.22	0.8675	300.12	-1000000	-1000000	-1000000	-1000000	
3.660	-0.06232	-209.42	0.8719	300.13	-1000000	-1000000	-1000000	-1000000	
3.680	-0.06107	-210.20	0.8763	300.15	-1000000	-1000000	-1000000	-1000000	
3.700	-0.05981	-211.37	0.8808	300.15	-1000000	-1000000	-1000000	-1000000	
3.720	-0.05864	-213.03	0.8851	300.13	-1000000	-1000000	-1000000	-1000000	
3.740	-0.05747	-215.56	0.8894	300.12	-1000000	-1000000	-1000000	-1000000	
3.760	-0.05628	-218.38	0.8938	300.14	-1000000	-1000000	-1000000	-1000000	
3.780	-0.05505	-220.50	0.8982	300.15	-1000000	-1000000	-1000000	-1000000	
3.800	-0.05384	-221.97	0.9027	300.15	-1000000	-1000000	-1000000	-1000000	
3.820	-0.05270	-222.88	0.9071	300.12	-1000000	-1000000	-1000000	-1000000	
3.840	-0.05147	-222.84	0.9116	300.12	-1000000	-1000000	-1000000	-1000000	
3.860	-0.05019	-221.96	0.9162	300.14	-1000000	-1000000	-1000000	-1000000	
3.880	-0.04891	-221.55	0.9208	300.15	-1000000	-1000000	-1000000	-1000000	
3.900	-0.04766	-222.17	0.9253	300.14	-1000000	-1000000	-1000000	-1000000	
3.920	-0.04645	-222.68	0.9298	300.12	-1000000	-1000000	-1000000	-1000000	
3.940	-0.04526	-222.89	0.9343	300.13	-1000000	-1000000	-1000000	-1000000	
3.960	-0.04407	-222.98	0.9388	300.15	-1000000	-1000000	-1000000	-1000000	
3.980	-0.04289	-223.26	0.9434	300.15	-1000000	-1000000	-1000000	-1000000	
4.000	-0.04164	-224.08	0.9480	300.13	-1000000	-1000000	-1000000	-1000000	
4.020	-0.04039	-225.40	0.9525	300.11	-1000000	-1000000	-1000000	-1000000	
4.040	-0.03914	-227.20	0.9570	300.12	-1000000	-1000000	-1000000	-1000000	
4.060	-0.03792	-228.94	0.9615	300.14	-1000000	-1000000	-1000000	-1000000	
4.080	-0.03667	-230.31	0.9660	300.14	-1000000	-1000000	-1000000	-1000000	
4.100	-0.03541	-230.93	0.9707	300.12	-1000000	-1000000	-1000000	-1000000	
4.120	-0.03418	-231.21	0.9755	300.12	-1000000	-1000000	-1000000	-1000000	
4.140	-0.03297	-231.16	0.9801	300.14	-1000000	-1000000	-1000000	-1000000	
4.160	-0.03180	-230.81	0.9846	300.15	-1000000	-1000000	-1000000	-1000000	
4.180	-0.03059	-230.95	0.9892	300.14	-1000000	-1000000	-1000000	-1000000	
4.200	-0.02923	-231.15	0.9938	300.12	-1000000	-1000000	-1000000	-1000000	
4.220	-0.02790	-231.35	0.9985	300.12	-1000000	-1000000	-1000000	-1000000	
4.240	-0.02665	-231.48	1.003	300.14	-1000000	-1000000	-1000000	-1000000	
4.260	-0.02541	-230.98	1.008	300.15	-1000000	-1000000	-1000000	-1000000	
4.280	-0.02421	-230.28	1.013	300.13	-1000000	-1000000	-1000000	-1000000	
4.300	-0.02299	-230.51	1.017	300.11	-1000000	-1000000	-1000000	-1000000	
4.320	-0.02170	-231.55	1.022	300.13	-1000000	-1000000	-1000000	-1000000	
4.340	-0.02042	-233.08	1.026	300.15	-1000000	-1000000	-1000000	-1000000	
4.360	-0.01917	-234.27	1.031	300.14	-1000000	-1000000	-1000000	-1000000	
4.380	-0.01795	-234.70	1.036	300.12	-1000000	-1000000	-1000000	-1000000	
4.400	-0.01670	-234.79	1.040	300.12	-1000000	-1000000	-1000000	-1000000	
4.420	-0.01544	-234.50	1.045	300.13	-1000000	-1000000	-1000000	-1000000	
4.440	-0.01416	-233.62	1.050	300.15	-1000000	-1000000	-1000000	-1000000	
4.460	-0.01289	-233.31	1.054	300.13	-1000000	-1000000	-1000000	-1000000	
4.480	-0.01164	-233.93	1.059	300.12	-1000000	-1000000	-1000000	-1000000	
4.500	-0.01039	-234.32	1.064	300.12	-1000000	-1000000	-1000000	-1000000	
4.520	-0.00915	-234.62	1.068	300.14	-1000000	-1000000	-1000000	-1000000	
4.540	-0.00793	-234.66	1.073	300.15	-1000000	-1000000	-1000000	-1000000	
4.560	-0.00661	-233.91	1.078	300.49	-1000000	-1000000	-1000000	-1000000	
4.580	-0.00526	-233.12	1.082	302.44	-1000000	-1000000	-1000000	-1000000	
4.600	-0.00404	-232.80	1.087	305.07	-1000000	-1000000	-1000000	-1000000	
4.620	-0.00290	-233.28	1.092	308.43	-1000000	-1000000	-1000000	-1000000	
4.640	-0.00170	-234.13	1.097	312.76	-1000000	-1000000	-1000000	-1000000	
4.660	-0.00046	-234.59	1.101	316.44	-1000000	-1000000	-1000000	-1000000	
4.680	0.00071	-234.13	1.106	319.29	-1000000	-1000000	-1000000	-1000000	
4.700	0.00180	-229.35	1.110	321.23	-1000000	-1000000	-1000000	-1000000	
4.720	0.00278	-214.28	1.115	322.61	-1000000	-1000000	-1000000	-1000000	
4.740	0.00360	-183.93	1.120	324.26	-1000000	-1000000	-1000000	-1000000	
4.760	0.00418	-137.83	1.124	325.73	-1000000	-1000000	-1000000	-1000000	
4.780	0.00448	-79.81	1.129	326.10	-1000000	-1000000	-1000000	-1000000	
4.800	0.00464	-17.63	1.133	326.01	-1000000	-1000000	-1000000	-1000000	
4.820	0.00472	39.08	1.135	325.98	-1000000	-1000000	-1000000	-1000000	
4.840	0.00479	82.66	1.137	326.23	-1000000	-1000000	-1000000	-1000000	
4.860	0.00487	111.74	1.138	326.29	-1000000	-1000000	-1000000	-1000000	
4.880	0.00490	128.39	1.138	326.36	-1000000	-1000000	-1000000	-1000000	
4.900	0.00491	136.40	1.138	326.42	-1000000	-1000000	-1000000	-1000000	
4.920	0.00488	140.07	1.138	326.20	-1000000	-1000000	-1000000	-1000000	
4.940	0.00487	141.76	1.138	325.88	-1000000	-1000000	-1000000	-1000000	
4.960	0.00486	142.57	1.138	325.18	-1000000	-1000000	-1000000	-1000000	
4.980	0.00489	142.99	1.138	324.88	-1000000	-1000000	-1000000	-1000000	
5.000	0.00491	143.19	1.138	324.91	-1000000	-1000000	-1000000	-1000000	
5.020	0.00491	143.21	1.138	324.80	-1000000	-1000000	-1000000	-1000000	
5.040	0.00489	143.55	1.138	324.53	-1000000	-1000000	-1000000	-1000000	
5.060	0.00489	144.19	1.138	324.26	-1000000	-1000000	-1000000	-1000000	
5.080	0.00490	144.73	1.138	324.21	-1000000	-1000000	-1000000	-1000000	
5.100	0.00487	145.73	1.138	324.28	-1000000	-1000000	-1000000	-1000000	
5.120	0.00485	146.63	1.138	323.69	-1000000	-1000000	-1000000	-1000000	
5.140	0.00487	147.43	1.138	323.16	-1000000	-1000000	-1000000	-1000000	
5.160	0.00487	147.88	1.138	322.99	-1000000	-1000000	-1000000	-1000000	
5.180	0.00489	148.22	1.138	322.96	-1000000	-1000000	-1000000	-1000000	
5.200	0.00490	148.95	1.138	322.70	-1000000	-1000000	-1000000	-1000000	
5.220	0.00484	149.59	1.138	322.88	-1000000	-1000000	-1000000	-1000000	
5.240	0.00482	149.97	1.138	323.09	-1000000	-1000000	-1000000	-1000000	
5.260	0.00485	150.65	1.138	322.92	-1000000	-1000000	-1000000	-1000000	
5.280	0.00484	151.29	1.137	322.64	-1000000	-1000000	-1000000	-1000000	
5.300	0.00481	151.53	1.137	322.20	-1000000	-1000000	-1000000	-1000000	
5.320	0.00478	151.60	1.137	322.18	-1000000	-1000000	-1000000	-1000000	
5.340	0.00477	151.55	1.137	322.72	-1000000	-1000000	-1000000	-1000000	
5.360	0.00472	151.50	1.137	322.76	-1000000	-1000000	-1000000	-1000000	
5.380	0.00462	151.45	1.137	322.32	-1000000	-1000000	-1000000	-1000000	
5.400	0.00464	151.50	1.136	322.19	-1000000	-1000000	-1000000	-1000000	
5.420	0.00474	151.12	1.136	321.84	-1000000	-1000000	-1000000	-1000000	
5.440	0.00481	150.29	1.136	321.80	-1000000	-1000000	-1000000	-1000000	
5.460	0.00476	149.86	1.136	322.48	-1000000	-1000000	-1000000	-1000000	
5.480	0.00470	149.73	1.136	322.47	-1000000	-1000000	-1000000	-1000000	
5.500	0.00470	149.27	1.136	322.04	-1000000	-1000000	-1000000	-1000000	
5.520	0.00467	148.51	1.136	321.49	-1000000	-1000000	-1000000	-1000000	
5.540	0.00465	148.11	1.136	321.38	-1000000	-1000000	-1000000	-1000000	
5.560	0.00462	147.87	1.135	321.45	-1000000	-1000000	-1000000	-1000000	
5.580	0.00457	147.26	1.135	321.32	-1000000	-1000000	-1000000	-1000000	
5.600	0.00459	146.22	1.135	321.20	-1000000	-1000000	-1000000	-1000000	
5.620	0.00464	145.05	1.135	321.33	-1000000	-1000000	-1000000	-1000000	
5.640	0.00464	143.89	1.135	321.33	-1000000	-1000000	-1000000	-1000000	
5.660	0.00464	142.86	1.135	321.58	-1000000	-1000000	-1000000	-1000000	
5.680	0.00464	141.79	1.135	321.88	-1000000	-1000000	-1000000	-1000000	
5.700	0.00465	140.31	1.134	321.95	-1000000	-1000000	-1000000	-1000000	
5.720	0.00464	138.37	1.134	321.91	-1000000	-1000000	-1000000	-1000000	
5.740	0.00465	136.12	1.134	322.04	-1000000	-1000000	-1000000	-1000000	
5.760	0.00470	132.40	1.134	322.26	-1000000	-1000000	-1000000	-1000000	
5.780	0.00479	126.97	1.134	322.48	-1000000	-1000000	-1000000	-1000000	
5.800	0.00485	118.57	1.134	322.97	-1000000	-1000000	-1000000	-1000000	
5.820	0.00495	104.75	1.135	323.62	-1000000	-1000000	-1000000	-1000000	
5.840	0.00511	83.81	1.135	324.20	-1000000	-1000000	-1000000	-1000000	
5.860	0.00533	56.33	1.135	325.14	-1000000	-1000000	-1000000	-1000000	
5.880	0.00558	26.99	1.136	326.29	-1000000	-1000000	-1000000	-1000000	
5.900	0.00597	3.186	1.136	327.20	-1000000	-1000000	-1000000	-1000000	
5.920	0.00640	-7.709	1.138	327.96	-1000000	-1000000	-1000000	-1000000	
5.940	0.00676	-1.653	1.139	328.58	-1000000	-1000000	-1000000	-1000000	
5.960	0.00698	20.91	1.142	329.18	-1000000	-1000000	-1000000	-1000000	
5.980	0.00707	53.17	1.144	329.50	-1000000	-1000000	-1000000	-1000000	
6.000	0.00709	85.97	1.145	329.52	-1000000	-1000000	-1000000	-1000000	
6.020	0.00711	112.05	1.146	329.69	-1000000	-1000000	-1000000	-1000000	
6.040	0.00717	129.50	1.147	329.70	-1000000	-1000000	-1000000	-1000000	
6.060	0.00720	138.98	1.147	329.46	-1000000	-1000000	-1000000	-1000000	
6.080	0.00715	143.29	1.147	329.56	-1000000	-1000000	-1000000	-1000000	
6.100	0.00713	145.31	1.147	329.92	-1000000	-1000000	-1000000	-1000000	
6.120	0.00719	146.27	1.147	329.63	-1000000	-1000000	-1000000	-1000000	
6.140	0.00724	146.91	1.147	329.27	-1000000	-1000000	-1000000	-1000000	
6.160	0.00722	147.59	1.147	329.30	-1000000	-1000000	-1000000	-1000000	
6.180	0.00717	148.20	1.147	329.14	-1000000	-1000000	-1000000	-1000000	
6.200	0.00713	148.99	1.147	329.11	-1000000	-1000000	-1000000	-1000000	
6.220	0.00715	149.65	1.147	329.29	-1000000	-1000000	-1000000	-1000000	
6.240	0.00718	150.32	1.146	329.58	-1000000	-1000000	-1000000	-1000000	
6.260	0.00715	151.03	1.147	329.53	-1000000	-1000000	-1000000	-1000000	
6.280	0.00717	151.46	1.146	329.44	-1000000	-1000000	-1000000	-1000000	
6.300	0.00717	151.60	1.146	329.51	-1000000	-1000000	-1000000	-1000000	
6.320	0.00712	151.73	1.146	329.69	-1000000	-1000000	-1000000	-1000000	
6.340	0.00713	151.46	1.146	329.73	-1000000	-1000000	-1000000	-1000000	
6.360	0.00714	150.58	1.146	329.68	-1000000	-1000000	-1000000	-1000000	
6.380	0.00707	150.01	1.146	329.71	-1000000	-1000000	-1000000	-1000000	
6.400	0.00702	149.00	1.145	329.69	-1000000	-1000000	-1000000	-1000000	
6.420	0.00704	146.76	1.145	329.40	-1000000	-1000000	-1000000	-1000000	
6.440	0.00711	143.77	1.145	329.47	-1000000	-1000000	-1000000	-1000000	
6.460	0.00715	139.96	1.145	329.83	-1000000	-1000000	-1000000	-1000000	
6.480	0.00721	133.87	1.145	330.16	-1000000	-1000000	-1000000	-1000000	
6.500	0.00728	124.11	1.145	330.66	-1000000	-1000000	-1000000	-1000000	
6.520	0.00735	109.41	1.145	331.41	-1000000	-1000000	-1000000	-1000000	
6.540	0.00741	90.23	1.145	331.95	-1000000	-1000000	-1000000	-1000000	
6.560	0.00755	68.43	1.145	332.34	-1000000	-1000000	-1000000	-1000000	
6.580	0.00777	47.39	1.146	332.99	-1000000	-1000000	-1000000	-1000000	
6.600	0.00802	33.33	1.146	333.60	-1000000	-1000000	-1000000	-1000000	
6.620	0.00827	30.95	1.148	334.40	-1000000	-1000000	-1000000	-1000000	
6.640	0.00848	39.99	1.149	335.10	-1000000	-1000000	-1000000	-1000000	
6.660	0.00864	57.33	1.150	335.37	-1000000	-1000000	-1000000	-1000000	
6.680	0.00873	78.52	1.152	335.42	-1000000	-1000000	-1000000	-1000000	
6.700	0.00876	98.64	1.152	335.40	-1000000	-1000000	-1000000	-1000000	
6.720	0.00877	113.70	1.152	335.54	-1000000	-1000000	-1000000	-1000000	
6.740	0.00872	123.59	1.153	335.61	-1000000	-1000000	-1000000	-1000000	
6.760	0.00872	129.67	1.154	335.32	-1000000	-1000000	-1000000	-1000000	
6.780	0.00879	133.33	1.153	335.04	-1000000	-1000000	-1000000	-1000000	
6.800	0.00883	135.55	1.153	335.25	-1000000	-1000000	-1000000	-1000000	
6.820	0.00883	136.82	1.153	335.34	-1000000	-1000000	-1000000	-1000000	
6.840	0.00884	137.76	1.153	335.15	-1000000	-1000000	-1000000	-1000000	
6.860	0.00886	138.60	1.154	335.04	-1000000	-1000000	-1000000	-1000000	
6.880	0.00883	139.63	1.153	335.50	-1000000	-1000000	-1000000	-1000000	
6.900	0.00878	140.74	1.153	335.63	-1000000	-1000000	-1000000	-1000000	
6.920	0.00878	141.37	1.153	335.41	-1000000	-1000000	-1000000	-1000000	
6.940	0.00882	141.48	1.153	335.30	-1000000	-1000000	-1000000	-1000000	
6.960	0.00888	141.41	1.154	335.63	-1000000	-1000000	-1000000	-1000000	
6.980	0.00891	141.17	1.153	336.04	-1000000	-1000000	-1000000	-1000000	
7.000	0.00891	140.21	1.153	335.90	-1000000	-1000000	-1000000	-1000000	
7.020	0.00891	138.27	1.153	335.74	-1000000	-1000000	-1000000	-1000000	
7.040	0.00887	135.33	1.153	335.91	-1000000	-1000000	-1000000	-1000000	
7.060	0.00890	130.52	1.154	336.17	-1000000	-1000000	-1000000	-1000000	
7.080	0.00894	122.84	1.153	336.24	-1000000	-1000000	-1000000	-1000000	
7.100	0.00903	112.12	1.153	336.91	-1000000	-1000000	-1000000	-1000000	
7.120	0.00923	98.94	1.153	337.22	-1000000	-1000000	-1000000	-1000000	
7.140	0.00942	85.41	1.154	337.52	-1000000	-1000000	-1000000	-1000000	
7.160	0.00959	74.46	1.154	337.95	-1000000	-1000000	-1000000	-1000000	
7.180	0.00977	67.76	1.154	338.44	-1000000	-1000000	-1000000	-1000000	
7.200	0.00992	66.60	1.155	338.85	-1000000	-1000000	-1000000	-1000000	
7.220	0.01005	71.40	1.155	339.43	-1000000	-1000000	-1000000	-1000000	
7.240	0.01013	80.02	1.156	339.78	-1000000	-1000000	-1000000	-1000000	
7.260	0.01025	89.74	1.157	340.10	-1000000	-1000000	-1000000	-1000000	
7.280	0.01034	99.07	1.158	340.35	-1000000	-1000000	-1000000	-1000000	
7.300	0.01043	106.90	1.158	340.49	-1000000	-1000000	-1000000	-1000000	
7.320	0.01047	113.12	1.159	340.73	-1000000	-1000000	-1000000	-1000000	
7.340	0.01050	118.04	1.159	341.03	-1000000	-1000000	-1000000	-1000000	
7.360	0.01051	121.99	1.159	341.13	-1000000	-1000000	-1000000	-1000000	
7.380	0.01053	125.20	1.159	340.94	-1000000	-1000000	-1000000	-1000000	
7.400	0.01056	127.71	1.159	340.83	-1000000	-1000000	-1000000	-1000000	
7.420	0.01059	129.81	1.159	340.79	-1000000	-1000000	-1000000	-1000000	
7.440	0.01061	131.50	1.160	340.67	-1000000	-1000000	-1000000	-1000000	
7.460	0.01062	132.78	1.160	341.01	-1000000	-1000000	-1000000	-1000000	
7.480	0.01063	133.89	1.160	341.21	-1000000	-1000000	-1000000	-1000000	
7.500	0.01062	134.56	1.161	341.23	-1000000	-1000000	-1000000	-1000000	
7.520	0.01063	134.74	1.160	341.22	-1000000	-1000000	-1000000	-1000000	
7.540	0.01064	134.44	1.160	341.28	-1000000	-1000000	-1000000	-1000000	
7.560	0.01068	133.08	1.160	341.63	-1000000	-1000000	-1000000	-1000000	
7.580	0.01073	130.45	1.159	341.88	-1000000	-1000000	-1000000	-1000000	
7.600	0.01075	126.56	1.159	342.19	-1000000	-1000000	-1000000	-1000000	
7.620	0.01078	120.62	1.159	342.33	-1000000	-1000000	-1000000	-1000000	
7.640	0.01089	113.07	1.160	342.68	-1000000	-1000000	-1000000	-1000000	
7.660	0.01104	105.22	1.160	343.02	-1000000	-1000000	-1000000	-1000000	
7.680	0.01115	98.77	1.161	342.93	-1000000	-1000000	-1000000	-1000000	
7.700	0.01124	95.27	1.162	342.86	-1000000	-1000000	-1000000	-1000000	
7.720	0.01134	95.11	1.162	343.01	-1000000	-1000000	-1000000	-1000000	
7.740	0.01143	98.14	1.162	343.41	-1000000	-1000000	-1000000	-1000000	
7.760	0.01149	103.08	1.162	343.80	-1000000	-1000000	-1000000	-1000000	
7.780	0.01154	108.06	1.163	344.34	-1000000	-1000000	-1000000	-1000000	
7.800	0.01165	111.86	1.164	344.62	-1000000	-1000000	-1000000	-1000000	
7.820	0.01170	113.91	1.164	344.76	-1000000	-1000000	-1000000	-1000000	
7.840	0.01172	114.52	1.163	344.85	-1000000	-1000000	-1000000	-1000000	
7.860	0.01180	113.99	1.164	345.17	-1000000	-1000000	-1000000	-1000000	
7.880	0.01185	113.31	1.164	345.51	-1000000	-1000000	-1000000	-1000000	
7.900	0.01189	113.68	1.164	345.75	-1000000	-1000000	-1000000	-1000000	
7.920	0.01198	114.46	1.164	346.01	-1000000	-1000000	-1000000	-1000000	
7.940	0.01204	115.50	1.165	346.09	-1000000	-1000000	-1000000	-1000000	
7.960	0.01207	116.74	1.165	346.09	-1000000	-1000000	-1000000	-1000000	
7.980	0.01214	117.96	1.165	346.16	-1000000	-1000000	-1000000	-1000000	
8.000	0.01216	119.47	1.166	346.36	-1000000	-1000000	-1000000	-1000000	
8.020	0.01219	121.29	1.166	346.46	-1000000	-1000000	-1000000	-1000000	
8.040	0.01221	122.94	1.166	346.56	-1000000	-1000000	-1000000	-1000000	
8.060	0.01219	124.46	1.166	346.64	-1000000	-1000000	-1000000	-1000000	
8.080	0.01223	125.70	1.166	346.77	-1000000	-1000000	-1000000	-1000000	
8.100	0.01230	126.16	1.167	346.99	-1000000	-1000000	-1000000	-1000000	
8.120	0.01238	126.04	1.167	347.10	-1000000	-1000000	-1000000	-1000000	
8.140	0.01242	125.22	1.167	347.32	-1000000	-1000000	-1000000	-1000000	
8.160	0.01239	123.30	1.167	347.56	-1000000	-1000000	-1000000	-1000000	
8.180	0.01243	120.37	1.166	347.61	-1000000	-1000000	-1000000	-1000000	
8.200	0.01255	117.77	1.167	347.75	-1000000	-1000000	-1000000	-1000000	
8.220	0.01264	115.16	1.167	347.99	-1000000	-1000000	-1000000	-1000000	
8.240	0.01267	112.38	1.167	347.99	-1000000	-1000000	-1000000	-1000000	
8.260	0.01276	110.26	1.167	348.14	-1000000	-1000000	-1000000	-1000000	
8.280	0.01286	108.59	1.168	348.42	-1000000	-1000000	-1000000	-1000000	
8.300	0.01294	107.13	1.168	348.63	-1000000	-1000000	-1000000	-1000000	
8.320	0.01305	106.25	1.168	348.75	-1000000	-1000000	-1000000	-1000000	
8.340	0.01315	106.52	1.169	348.91	-1000000	-1000000	-1000000	-1000000	
8.360	0.01322	107.56	1.169	349.03	-1000000	-1000000	-1000000	-1000000	
8.380	0.01322	109.05	1.169	349.15	-1000000	-1000000	-1000000	-1000000	
8.400	0.01325	110.89	1.170	349.30	-1000000	-1000000	-1000000	-1000000	
8.420	0.01333	112.77	1.170	349.54	-1000000	-1000000	-1000000	-1000000	
8.440	0.01337	114.43	1.170	349.84	-1000000	-1000000	-1000000	-1000000	
8.460	0.01344	116.02	1.171	350.05	-1000000	-1000000	-1000000	-1000000	
8.480	0.01352	117.68	1.171	350.13	-1000000	-1000000	-1000000	-1000000	
8.500	0.01360	119.57	1.171	350.65	-1000000	-1000000	-1000000	-1000000	
8.520	0.01363	121.51	1.171	351.07	-1000000	-1000000	-1000000	-1000000	
8.540	0.01363	123.69	1.171	351.17	-1000000	-1000000	-1000000	-1000000	
8.560	0.01363	125.60	1.172	351.27	-1000000	-1000000	-1000000	-1000000	
8.580	0.01361	127.57	1.172	351.29	-1000000	-1000000	-1000000	-1000000	
8.600	0.01361	129.90	1.172	351.21	-1000000	-1000000	-1000000	-1000000	
8.620	0.01364	132.00	1.172	351.01	-1000000	-1000000	-1000000	-1000000	
8.640	0.01371	133.78	1.172	350.82	-1000000	-1000000	-1000000	-1000000	
8.660	0.01376	135.41	1.172	350.82	-1000000	-1000000	-1000000	-1000000	
8.680	0.01374	136.95	1.172	351.03	-1000000	-1000000	-1000000	-1000000	
8.700	0.01367	138.28	1.172	351.03	-1000000	-1000000	-1000000	-1000000	
8.720	0.01361	139.56	1.172	350.82	-1000000	-1000000	-1000000	-1000000	
8.740	0.01363	140.94	1.172	350.83	-1000000	-1000000	-1000000	-1000000	
8.760	0.01367	142.34	1.172	350.94	-1000000	-1000000	-1000000	-1000000	
8.780	0.01366	143.64	1.172	350.94	-1000000	-1000000	-1000000	-1000000	
8.800	0.01363	144.54	1.172	350.90	-1000000	-1000000	-1000000	-1000000	
8.820	0.01368	145.19	1.172	350.85	-1000000	-1000000	-1000000	-1000000	
8.840	0.01375	146.02	1.172	351.05	-1000000	-1000000	-1000000	-1000000	
8.860	0.01371	147.15	1.172	351.31	-1000000	-1000000	-1000000	-1000000	
8.880	0.01367	147.93	1.172	351.35	-1000000	-1000000	-1000000	-1000000	
8.900	0.01363	148.95	1.172	351.23	-1000000	-1000000	-1000000	-1000000	
8.920	0.01358	149.82	1.172	351.18	-1000000	-1000000	-1000000	-1000000	
8.940	0.01355	150.80	1.171	351.07	-1000000	-1000000	-1000000	-1000000	
8.960	0.01361	151.54	1.171	351.04	-1000000	-1000000	-1000000	-1000000	
8.980	0.01367	151.84	1.171	351.22	-1000000	-1000000	-1000000	-1000000	
9.000	0.01366	152.45	1.171	351.30	-1000000	-1000000	-1000000	-1000000	
9.020	0.01366	153.19	1.171	351.22	-1000000	-1000000	-1000000	-1000000	
9.040	0.01363	153.47	1.171	350.90	-1000000	-1000000	-1000000	-1000000	
9.060	0.01358	153.94	1.171	350.67	-1000000	-1000000	-1000000	-1000000	
9.080	0.01356	154.45	1.171	350.61	-1000000	-1000000	-1000000	-1000000	
9.100	0.01353	154.70	1.170	350.47	-1000000	-1000000	-1000000	-1000000	
9.120	0.01355	154.25	1.170	350.51	-1000000	-1000000	-1000000	-1000000	
9.140	0.01350	153.43	1.170	350.78	-1000000	-1000000	-1000000	-1000000	
9.160	0.01346	153.07	1.170	351.08	-1000000	-1000000	-1000000	-1000000	
9.180	0.01347	152.88	1.169	351.24	-1000000	-1000000	-1000000	-1000000	
9.200	0.01348	152.72	1.169	351.29	-1000000	-1000000	-1000000	-1000000	
9.220	0.01342	152.26	1.169	351.11	-1000000	-1000000	-1000000	-1000000	
9.240	0.01337	151.67	1.169	350.98	-1000000	-1000000	-1000000	-1000000	
9.260	0.01333	150.99	1.169	351.33	-1000000	-1000000	-1000000	-1000000	
9.280	0.01333	150.25	1.169	351.41	-1000000	-1000000	-1000000	-1000000	
9.300	0.01335	149.42	1.169	351.17	-1000000	-1000000	-1000000	-1000000	
9.320	0.01335	148.61	1.169	351.04	-1000000	-1000000	-1000000	-1000000	
9.340	0.01333	148.26	1.168	350.89	-1000000	-1000000	-1000000	-1000000	
9.360	0.01328	148.28	1.168	350.84	-1000000	-1000000	-1000000	-1000000	
9.380	0.01328	147.86	1.168	350.78	-1000000	-1000000	-1000000	-1000000	
9.400	0.01331	147.03	1.168	350.71	-1000000	-1000000	-1000000	-1000000	
9.420	0.01328	146.52	1.168	350.56	-1000000	-1000000	-1000000	-1000000	
9.440	0.01320	146.21	1.168	350.39	-1000000	-1000000	-1000000	-1000000	
9.460	0.01316	146.10	1.168	350.50	-1000000	-1000000	-1000000	-1000000	
9.480	0.01315	146.25	1.167	350.40	-1000000	-1000000	-1000000	-1000000	
9.500	0.01321	146.46	1.167	350.39	-1000000	-1000000	-1000000	-1000000	
9.520	0.01328	146.47	1.167	350.87	-1000000	-1000000	-1000000	-1000000	
9.540	0.01324	145.94	1.167	350.85	-1000000	-1000000	-1000000	-1000000	
9.560	0.01317	145.19	1.167	350.57	-1000000	-1000000	-1000000	-1000000	
9.580	0.01310	144.86	1.167	350.63	-1000000	-1000000	-1000000	-1000000	
9.600	0.01302	144.80	1.167	350.73	-1000000	-1000000	-1000000	-1000000	
9.620	0.01299	144.95	1.167	350.70	-1000000	-1000000	-1000000	-1000000	
9.640	0.01299	144.89	1.167	350.73	-1000000	-1000000	-1000000	-1000000	
9.660	0.01303	144.61	1.167	350.81	-1000000	-1000000	-1000000	-1000000	
9.680	0.01301	144.53	1.167	350.66	-1000000	-1000000	-1000000	-1000000	
9.700	0.01298	144.62	1.167	350.34	-1000000	-1000000	-1000000	-1000000	
9.720	0.01301	144.66	1.167	350.18	-1000000	-1000000	-1000000	-1000000	
9.740	0.01302	144.67	1.167	350.44	-1000000	-1000000	-1000000	-1000000	
9.760	0.01299	144.61	1.166	350.62	-1000000	-1000000	-1000000	-1000000	
9.780	0.01295	144.03	1.166	350.54	-1000000	-1000000	-1000000	-1000000	
9.800	0.01293	143.43	1.166	350.33	-1000000	-1000000	-1000000	-1000000	
9.820	0.01293	143.14	1.166	350.14	-1000000	-1000000	-1000000	-1000000	
9.840	0.01295	143.10	1.166	350.27	-1000000	-1000000	-1000000	-1000000	
9.860	0.01294	143.06	1.166	350.49	-1000000	-1000000	-1000000	-1000000	
9.880	0.01291	142.93	1.166	350.51	-1000000	-1000000	-1000000	-1000000	
9.900	0.01290	142.90	1.166	350.54	-1000000	-1000000	-1000000	-1000000	
9.920	0.01291	142.92	1.166	350.53	-1000000	-1000000	-1000000	-1000000	
9.940	0.01291	142.92	1.166	350.25	-1000000	-1000000	-1000000	-1000000	
9.960	0.01289	142.88	1.165	350.03	-1000000	-1000000	-1000000	-1000000	
9.980	0.01281	142.89	1.165	350.14	-1000000	-1000000	-1000000	-1000000	
10.00	0.01275	142.96	1.165	350.38	-1000000	-1000000	-1000000	-1000000	
10.02	0.01278	143.09	1.165	350.56	-1000000	-1000000	-1000000	-1000000	
10.04	0.01285	143.14	1.165	350.34	-1000000	-1000000	-1000000	-1000000	
10.06	0.01285	143.05	1.165	350.11	-1000000	-1000000	-1000000	-1000000	
10.08	0.01280	143.18	1.165	350.24	-1000000	-1000000	-1000000	-1000000	
10.10	0.01275	143.21	1.165	350.41	-1000000	-1000000	-1000000	-1000000	
10.12	0.01272	143.22	1.165	350.30	-1000000	-1000000	-1000000	-1000000	
10.14	0.01275	143.19	1.165	350.19	-1000000	-1000000	-1000000	-1000000	
10.16	0.01273	143.07	1.164	350.15	-1000000	-1000000	-1000000	-1000000	
10.18	0.01271	143.02	1.164	350.21	-1000000	-1000000	-1000000	-1000000	
10.20	0.01276	143.06	1.165	350.26	-1000000	-1000000	-1000000	-1000000	
10.22	0.01274	143.08	1.165	350.21	-1000000	-1000000	-1000000	-1000000	
10.24	0.01267	143.24	1.164	350.24	-1000000	-1000000	-1000000	-1000000	
10.26	0.01261	143.34	1.165	350.27	-1000000	-1000000	-1000000	-1000000	
10.28	0.01258	142.78	1.165	350.21	-1000000	-1000000	-1000000	-1000000	
10.30	0.01252	141.86	1.164	350.30	-1000000	-1000000	-1000000	-1000000	
10.32	0.01246	141.42	1.164	350.38	-1000000	-1000000	-1000000	-1000000	
10.34	0.01252	141.24	1.164	350.36	-1000000	-1000000	-1000000	-1000000	
10.36	0.01257	141.24	1.164	350.37	-1000000	-1000000	-1000000	-1000000	
10.38	0.01259	141.27	1.164	350.34	-1000000	-1000000	-1000000	-1000000	
10.40	0.01259	141.24	1.164	350.20	-1000000	-1000000	-1000000	-1000000	
10.42	0.01257	141.35	1.164	350.06	-1000000	-1000000	-1000000	-1000000	
10.44	0.01253	141.53	1.164	350.00	-1000000	-1000000	-1000000	-1000000	
10.46	0.01249	141.48	1.164	350.00	-1000000	-1000000	-1000000	-1000000	
10.48	0.01254	141.28	1.164	349.90	-1000000	-1000000	-1000000	-1000000	
10.50	0.01256	141.30	1.164	349.72	-1000000	-1000000	-1000000	-1000000	
10.52	0.01252	141.44	1.163	349.84	-1000000	-1000000	-1000000	-1000000	
10.54	0.01252	141.53	1.164	349.96	-1000000	-1000000	-1000000	-1000000	
10.56	0.01252	141.53	1.164	350.13	-1000000	-1000000	-1000000	-1000000	
10.58	0.01247	141.52	1.164	350.16	-1000000	-1000000	-1000000	-1000000	
10.60	0.01244	141.51	1.163	350.13	-1000000	-1000000	-1000000	-1000000	
10.62	0.01246	141.26	1.164	350.19	-1000000	-1000000	-1000000	-1000000	
10.64	0.01242	140.73	1.163	350.40	-1000000	-1000000	-1000000	-1000000	
10.66	0.01235	140.16	1.163	350.48	-1000000	-1000000	-1000000	-1000000	
10.68	0.01236	139.69	1.163	350.48	-1000000	-1000000	-1000000	-1000000	
10.70	0.01239	139.60	1.163	350.30	-1000000	-1000000	-1000000	-1000000	
10.72	0.01240	139.25	1.163	350.03	-1000000	-1000000	-1000000	-1000000	
10.74	0.01239	138.39	1.163	349.85	-1000000	-1000000	-1000000	-1000000	
10.76	0.01234	138.05	1.163	349.56	-1000000	-1000000	-1000000	-1000000	
10.78	0.01231	138.17	1.163	349.50	-1000000	-1000000	-1000000	-1000000	
10.80	0.01228	138.25	1.164	349.59	-1000000	-1000000	-1000000	-1000000	
10.82	0.01227	138.24	1.163	349.76	-1000000	-1000000	-1000000	-1000000	
10.84	0.01231	138.37	1.163	349.81	-1000000	-1000000	-1000000	-1000000	
10.86	0.01236	139.14	1.163	349.94	-1000000	-1000000	-1000000	-1000000	
10.88	0.01242	139.82	1.164	349.99	-1000000	-1000000	-1000000	-1000000	
10.90	0.01243	139.93	1.163	350.00	-1000000	-1000000	-1000000	-1000000	
10.92	0.01239	139.75	1.163	350.22	-1000000	-1000000	-1000000	-1000000	
10.94	0.01232	139.56	1.163	350.35	-1000000	-1000000	-1000000	-1000000	
10.96	0.01227	138.84	1.164	350.28	-1000000	-1000000	-1000000	-1000000	
10.98	0.01225	138.24	1.163	350.00	-1000000	-1000000	-1000000	-1000000	
11.00	0.01227	138.06	1.163	349.97	-1000000	-1000000	-1000000	-1000000	
11.02	0.01229	137.29	1.163	350.37	-1000000	-1000000	-1000000	-1000000	
11.04	0.01229	136.48	1.164	350.64	-1000000	-1000000	-1000000	-1000000	
11.06	0.01231	135.62	1.163	350.35	-1000000	-1000000	-1000000	-1000000	
11.08	0.01232	134.61	1.163	350.08	-1000000	-1000000	-1000000	-1000000	
11.10	0.01230	133.52	1.163	350.33	-1000000	-1000000	-1000000	-1000000	
11.12	0.01229	132.40	1.164	350.42	-1000000	-1000000	-1000000	-1000000	
11.14	0.01236	131.53	1.163	350.30	-1000000	-1000000	-1000000	-1000000	
11.16	0.01237	130.63	1.163	350.23	-1000000	-1000000	-1000000	-1000000	
11.18	0.01230	129.97	1.163	350.32	-1000000	-1000000	-1000000	-1000000	
11.20	0.01226	129.63	1.164	350.43	-1000000	-1000000	-1000000	-1000000	
11.22	0.01226	129.58	1.163	350.48	-1000000	-1000000	-1000000	-1000000	
11.24	0.01223	129.87	1.163	350.50	-1000000	-1000000	-1000000	-1000000	
11.26	0.01225	130.69	1.163	350.53	-1000000	-1000000	-1000000	-1000000	
11.28	0.01226	131.62	1.164	350.80	-1000000	-1000000	-1000000	-1000000	
11.30	0.01227	132.46	1.163	351.01	-1000000	-1000000	-1000000	-1000000	
11.32	0.01227	133.37	1.163	350.73	-1000000	-1000000	-1000000	-1000000	
11.34	0.01227	134.43	1.163	350.45	-1000000	-1000000	-1000000	-1000000	
11.36	0.01231	135.60	1.164	350.39	-1000000	-1000000	-1000000	-1000000	
11.38	0.01234	136.44	1.163	350.43	-1000000	-1000000	-1000000	-1000000	
11.40	0.01234	137.25	1.163	350.43	-1000000	-1000000	-1000000	-1000000	
11.42	0.01229	138.26	1.163	350.36	-1000000	-1000000	-1000000	-1000000	
11.44	0.01223	139.29	1.164	350.34	-1000000	-1000000	-1000000	-1000000	
11.46	0.01225	140.48	1.163	350.28	-1000000	-1000000	-1000000	-1000000	
11.48	0.01225	141.63	1.163	350.37	-1000000	-1000000	-1000000	-1000000	
11.50	0.01220	142.57	1.163	350.40	-1000000	-1000000	-1000000	-1000000	
11.52	0.01217	143.59	1.163	350.52	-1000000	-1000000	-1000000	-1000000	
11.54	0.01217	144.67	1.163	350.40	-1000000	-1000000	-1000000	-1000000	
11.56	0.01216	145.72	1.163	350.39	-1000000	-1000000	-1000000	-1000000	
11.58	0.01216	146.86	1.163	350.45	-1000000	-1000000	-1000000	-1000000	
11.60	0.01215	147.81	1.163	350.49	-1000000	-1000000	-1000000	-1000000	
11.62	0.01214	148.30	1.163	350.42	-1000000	-1000000	-1000000	-1000000	
11.64	0.01208	149.00	1.163	350.41	-1000000	-1000000	-1000000	-1000000	
11.66	0.01201	149.58	1.163	350.37	-1000000	-1000000	-1000000	-1000000	
11.68	0.01202	149.69	1.163	350.15	-1000000	-1000000	-1000000	-1000000	
11.70	0.01208	149.75	1.163	349.99	-1000000	-1000000	-1000000	-1000000	
11.72	0.01208	149.74	1.163	349.93	-1000000	-1000000	-1000000	-1000000	
11.74	0.01201	148.98	1.162	350.02	-1000000	-1000000	-1000000	-1000000	
11.76	0.01193	147.94	1.162	350.11	-1000000	-1000000	-1000000	-1000000	
11.78	0.01193	146.75	1.163	350.09	-1000000	-1000000	-1000000	-1000000	
11.80	0.01197	145.43	1.162	350.01	-1000000	-1000000	-1000000	-1000000	
11.82	0.01198	144.09	1.162	349.86	-1000000	-1000000	-1000000	-1000000	
11.84	0.01192	143.31	1.161	349.75	-1000000	-1000000	-1000000	-1000000	
11.86	0.01184	143.16	1.161	349.87	-1000000	-1000000	-1000000	-1000000	
11.88	0.01184	143.13	1.162	349.92	-1000000	-1000000	-1000000	-1000000	
11.90	0.01189	142.36	1.162	350.11	-1000000	-1000000	-1000000	-1000000	
11.92	0.01190	142.03	1.162	350.48	-1000000	-1000000	-1000000	-1000000	
11.94	0.01185	142.55	1.161	350.34	-1000000	-1000000	-1000000	-1000000	
11.96	0.01183	142.98	1.161	350.09	-1000000	-1000000	-1000000	-1000000	
11.98	0.01180	143.18	1.161	350.06	-1000000	-1000000	-1000000	-1000000	
12.00	0.01176	143.06	1.161	350.03	-1000000	-1000000	-1000000	-1000000	
12.02	0.01177	143.03	1.160	349.88	-1000000	-1000000	-1000000	-1000000	
12.04	0.01180	143.16	1.157	349.75	-1000000	-1000000	-1000000	-1000000	
12.06	0.01182	142.69	1.155	349.54	-1000000	-1000000	-1000000	-1000000	
12.08	0.01182	141.95	1.154	349.47	-1000000	-1000000	-1000000	-1000000	
12.10	0.01182	141.46	1.153	349.62	-1000000	-1000000	-1000000	-1000000	
12.12	0.01178	141.40	1.154	349.54	-1000000	-1000000	-1000000	-1000000	
12.14	0.01176	141.51	1.154	349.46	-1000000	-1000000	-1000000	-1000000	
12.16	0.01169	141.40	1.154	349.47	-1000000	-1000000	-1000000	-1000000	
12.18	0.01161	140.74	1.154	349.73	-1000000	-1000000	-1000000	-1000000	
12.20	0.01160	139.98	1.153	350.21	-1000000	-1000000	-1000000	-1000000	
12.22	0.01165	139.19	1.153	350.30	-1000000	-1000000	-1000000	-1000000	
12.24	0.01170	138.26	1.154	350.10	-1000000	-1000000	-1000000	-1000000	
12.26	0.01169	137.14	1.154	350.04	-1000000	-1000000	-1000000	-1000000	
12.28	0.01170	136.33	1.154	350.17	-1000000	-1000000	-1000000	-1000000	
12.30	0.01174	135.69	1.154	350.14	-1000000	-1000000	-1000000	-1000000	
12.32	0.01176	135.14	1.154	350.14	-1000000	-1000000	-1000000	-1000000	
12.34	0.01178	135.60	1.154	350.13	-1000000	-1000000	-1000000	-1000000	
12.36	0.01189	137.22	1.155	350.20	-1000000	-1000000	-1000000	-1000000	
12.38	0.01201	140.49	1.156	350.22	-1000000	-1000000	-1000000	-1000000	
12.40	0.01215	146.14	1.157	349.98	-1000000	-1000000	-1000000	-1000000	
12.42	0.01227	154.67	1.158	349.85	-1000000	-1000000	-1000000	-1000000	
12.44	0.01244	166.68	1.159	349.98	-1000000	-1000000	-1000000	-1000000	
12.46	0.01266	182.40	1.160	350.03	-1000000	-1000000	-1000000	-1000000	
12.48	0.01286	202.39	1.161	349.87	-1000000	-1000000	-1000000	-1000000	
12.50	0.01317	226.68	1.162	350.01	-1000000	-1000000	-1000000	-1000000	
12.52	0.01352	255.98	1.163	350.19	-1000000	-1000000	-1000000	-1000000	
12.54	0.01388	291.25	1.165	350.25	-1000000	-1000000	-1000000	-1000000	
12.56	0.01430	332.20	1.167	350.40	-1000000	-1000000	-1000000	-1000000	
12.58	0.01476	378.30	1.169	350.56	-1000000	-1000000	-1000000	-1000000	
12.60	0.01516	428.61	1.171	350.55	-1000000	-1000000	-1000000	-1000000	
12.62	0.01554	482.39	1.173	350.52	-1000000	-1000000	-1000000	-1000000	
12.64	0.01595	538.86	1.175	350.59	-1000000	-1000000	-1000000	-1000000	
12.66	0.01640	597.72	1.178	350.73	-1000000	-1000000	-1000000	-1000000	
12.68	0.01687	659.13	1.180	350.47	-1000000	-1000000	-1000000	-1000000	
12.70	0.01733	723.34	1.183	350.07	-1000000	-1000000	-1000000	-1000000	
12.72	0.01783	790.05	1.185	349.83	-1000000	-1000000	-1000000	-1000000	
12.74	0.01838	859.40	1.188	349.89	-1000000	-1000000	-1000000	-1000000	
12.76	0.01893	931.11	1.191	349.96	-1000000	-1000000	-1000000	-1000000	
12.78	0.01947	1005.6	1.194	349.99	-1000000	-1000000	-1000000	-1000000	
12.80	0.02003	1082.7	1.197	349.98	-1000000	-1000000	-1000000	-1000000	
12.82	0.02061	1162.7	1.201	350.01	-1000000	-1000000	-1000000	-1000000	
12.84	0.02120	1244.9	1.204	350.09	-1000000	-1000000	-1000000	-1000000	
12.86	0.02179	1329.7	1.208	350.18	-1000000	-1000000	-1000000	-1000000	
12.88	0.02243	1417.1	1.211	350.15	-1000000	-1000000	-1000000	-1000000	
12.90	0.02310	1506.7	1.215	350.08	-1000000	-1000000	-1000000	-1000000	
12.92	0.02376	1598.5	1.219	349.95	-1000000	-1000000	-1000000	-1000000	
12.94	0.02438	1692.6	1.223	350.01	-1000000	-1000000	-1000000	-1000000	
12.96	0.02502	1789.0	1.227	349.93	-1000000	-1000000	-1000000	-1000000	
12.98	0.02570	1887.5	1.231	349.79	-1000000	-1000000	-1000000	-1000000	
13.00	0.02641	1988.3	1.236	349.69	-1000000	-1000000	-1000000	-1000000	
13.02	0.02716	2091.3	1.240	349.65	-1000000	-1000000	-1000000	-1000000	
13.04	0.02793	2196.9	1.245	349.37	-1000000	-1000000	-1000000	-1000000	
13.06	0.02875	2304.6	1.250	349.03	-1000000	-1000000	-1000000	-1000000	
13.08	0.02957	2414.0	1.254	348.94	-1000000	-1000000	-1000000	-1000000	
13.10	0.03037	2525.3	1.259	349.11	-1000000	-1000000	-1000000	-1000000	
13.12	0.03116	2638.8	1.264	349.35	-1000000	-1000000	-1000000	-1000000	
13.14	0.03198	2753.9	1.270	349.47	-1000000	-1000000	-1000000	-1000000	
13.16	0.03280	2870.3	1.275	349.49	-1000000	-1000000	-1000000	-1000000	
13.18	0.03371	2988.1	1.280	349.33	-1000000	-1000000	-1000000	-1000000	
13.20	0.03466	3106.9	1.286	349.28	-1000000	-1000000	-1000000	-1000000	
13.22	0.03564	3226.5	1.292	349.54	-1000000	-1000000	-1000000	-1000000	
13.24	0.03665	3347.4	1.298	349.92	-1000000	-1000000	-1000000	-1000000	
13.26	0.03768	3468.7	1.304	350.13	-1000000	-1000000	-1000000	-1000000	
13.28	0.03873	3589.6	1.310	350.08	-1000000	-1000000	-1000000	-1000000	
13.30	0.03981	3710.6	1.316	350.24	-1000000	-1000000	-1000000	-1000000	
13.32	0.04088	3832.0	1.322	350.63	-1000000	-1000000	-1000000	-1000000	
13.34	0.04196	3954.0	1.328	350.80	-1000000	-1000000	-1000000	-1000000	
13.36	0.04310	4077.2	1.335	350.78	-1000000	-1000000	-1000000	-1000000	
13.38	0.04438	4201.7	1.342	350.67	-1000000	-1000000	-1000000	-1000000	
13.40	0.04580	4327.8	1.349	350.75	-1000000	-1000000	-1000000	-1000000	
13.42	0.04725	4455.1	1.355	350.83	-1000000	-1000000	-1000000	-1000000	
13.44	0.04871	4582.1	1.362	350.87	-1000000	-1000000	-1000000	-1000000	
13.46	0.05035	4708.8	1.369	350.94	-1000000	-1000000	-1000000	-1000000	
13.48	0.05220	4834.6	1.377	350.77	-1000000	-1000000	-1000000	-1000000	
13.50	0.05430	4958.7	1.384	350.69	-1000000	-1000000	-1000000	-1000000	
13.52	0.05673	5079.5	1.392	351.00	-1000000	-1000000	-1000000	-1000000	
13.54	0.05953	5194.9	1.399	351.46	-1000000	-1000000	-1000000	-1000000	
13.56	0.06272	5303.3	1.407	351.49	-1000000	-1000000	-1000000	-1000000	
13.58	0.06624	5403.9	1.415	351.43	-1000000	-1000000	-1000000	-1000000	
13.60	0.07006	5495.2	1.423	351.49	-1000000	-1000000	-1000000	-1000000	
13.62	0.07413	5576.7	1.431	351.40	-1000000	-1000000	-1000000	-1000000	
13.64	0.07836	5648.9	1.439	351.23	-1000000	-1000000	-1000000	-1000000	
13.66	0.08266	5712.9	1.447	351.15	-1000000	-1000000	-1000000	-1000000	
13.68	0.08699	5770.7	1.456	350.93	-1000000	-1000000	-1000000	-1000000	
13.70	0.09137	5823.4	1.464	350.72	-1000000	-1000000	-1000000	-1000000	
13.72	0.09584	5873.0	1.473	350.56	-1000000	-1000000	-1000000	-1000000	
13.74	0.1004	5920.8	1.482	350.38	-1000000	-1000000	-1000000	-1000000	
13.76	0.1049	5967.2	1.491	350.39	-1000000	-1000000	-1000000	-1000000	
13.78	0.1094	6012.4	1.500	350.39	-1000000	-1000000	-1000000	-1000000	
13.80	0.1139	6057.0	1.509	350.46	-1000000	-1000000	-1000000	-1000000	
13.82	0.1185	6101.5	1.518	350.49	-1000000	-1000000	-1000000	-1000000	
13.84	0.1231	6145.3	1.528	350.44	-1000000	-1000000	-1000000	-1000000	
13.86	0.1278	6188.1	1.538	350.27	-1000000	-1000000	-1000000	-1000000	
13.88	0.1326	6230.7	1.547	350.09	-1000000	-1000000	-1000000	-1000000	
13.90	0.1374	6272.9	1.557	350.25	-1000000	-1000000	-1000000	-1000000	
13.92	0.1422	6314.7	1.567	350.35	-1000000	-1000000	-1000000	-1000000	
13.94	0.1472	6356.4	1.577	350.42	-1000000	-1000000	-1000000	-1000000	
13.96	0.1522	6397.7	1.587	350.59	-1000000	-1000000	-1000000	-1000000	
13.98	0.1572	6438.5	1.597	350.58	-1000000	-1000000	-1000000	-1000000	
14.00	0.1622	6478.7	1.608	350.48	-1000000	-1000000	-1000000	-1000000	
14.02	0.1674	6518.9	1.618	350.33	-1000000	-1000000	-1000000	-1000000	
14.04	0.1725	6558.7	1.629	349.88	-1000000	-1000000	-1000000	-1000000	
14.06	0.1778	6597.8	1.639	349.65	-1000000	-1000000	-1000000	-1000000	
14.08	0.1831	6636.8	1.650	349.58	-1000000	-1000000	-1000000	-1000000	
14.10	0.1884	6675.5	1.661	349.60	-1000000	-1000000	-1000000	-1000000	
14.12	0.1938	6713.2	1.672	349.87	-1000000	-1000000	-1000000	-1000000	
14.14	0.1992	6750.7	1.684	350.22	-1000000	-1000000	-1000000	-1000000	
14.16	0.2047	6788.5	1.695	350.18	-1000000	-1000000	-1000000	-1000000	
14.18	0.2103	6826.7	1.706	350.10	-1000000	-1000000	-1000000	-1000000	
14.20	0.2158	6864.3	1.718	350.07	-1000000	-1000000	-1000000	-1000000	
14.22	0.2215	6901.2	1.730	350.07	-1000000	-1000000	-1000000	-1000000	
14.24	0.2272	6937.9	1.742	350.08	-1000000	-1000000	-1000000	-1000000	
14.26	0.2330	6974.0	1.754	350.07	-1000000	-1000000	-1000000	-1000000	
14.28	0.2389	7010.0	1.766	350.00	-1000000	-1000000	-1000000	-1000000	
14.30	0.2448	7046.0	1.778	349.81	-1000000	-1000000	-1000000	-1000000	
14.32	0.2507	7081.8	1.790	349.80	-1000000	-1000000	-1000000	-1000000	
14.34	0.2565	7117.5	1.802	349.90	-1000000	-1000000	-1000000	-1000000	
14.36	0.2624	7152.9	1.815	349.73	-1000000	-1000000	-1000000	-1000000	
14.38	0.2686	7187.9	1.828	349.48	-1000000	-1000000	-1000000	-1000000	
14.40	0.2747	7222.4	1.840	349.41	-1000000	-1000000	-1000000	-1000000	
14.42	0.2809	7256.9	1.853	349.42	-1000000	-1000000	-1000000	-1000000	
14.44	0.2871	7291.0	1.866	349.62	-1000000	-1000000	-1000000	-1000000	
14.46	0.2934	7324.9	1.879	349.57	-1000000	-1000000	-1000000	-1000000	
14.48	0.2997	7358.6	1.893	349.47	-1000000	-1000000	-1000000	-1000000	
14.50	0.3061	7392.0	1.906	349.51	-1000000	-1000000	-1000000	-1000000	
14.52	0.3125	7424.9	1.920	349.59	-1000000	-1000000	-1000000	-1000000	
14.54	0.3189	7457.7	1.933	349.63	-1000000	-1000000	-1000000	-1000000	
14.56	0.3255	7490.3	1.947	349.62	-1000000	-1000000	-1000000	-1000000	
14.58	0.3321	7522.8	1.961	349.73	-1000000	-1000000	-1000000	-1000000	
14.60	0.3389	7555.2	1.975	349.89	-1000000	-1000000	-1000000	-1000000	
14.62	0.3456	7587.0	1.989	350.12	-1000000	-1000000	-1000000	-1000000	
14.64	0.3523	7618.4	2.003	350.23	-1000000	-1000000	-1000000	-1000000	
14.66	0.3592	7649.5	2.017	350.17	-1000000	-1000000	-1000000	-1000000	
14.68	0.3660	7680.1	2.032	349.90	-1000000	-1000000	-1000000	-1000000	
14.70	0.3730	7710.6	2.046	349.82	-1000000	-1000000	-1000000	-1000000	
14.72	0.3800	7740.4	2.061	349.72	-1000000	-1000000	-1000000	-1000000	
14.74	0.3870	7770.3	2.076	349.90	-1000000	-1000000	-1000000	-1000000	
14.76	0.3941	7800.7	2.091	350.10	-1000000	-1000000	-1000000	-1000000	
14.78	0.4013	7830.9	2.106	350.23	-1000000	-1000000	-1000000	-1000000	
14.80	0.4085	7860.6	2.121	350.36	-1000000	-1000000	-1000000	-1000000	
14.82	0.4157	7890.4	2.136	350.43	-1000000	-1000000	-1000000	-1000000	
14.84	0.4231	7920.3	2.152	350.74	-1000000	-1000000	-1000000	-1000000	
14.86	0.4305	7950.0	2.167	350.89	-1000000	-1000000	-1000000	-1000000	
14.88	0.4379	7979.5	2.183	350.93	-1000000	-1000000	-1000000	-1000000	
14.90	0.4453	8008.7	2.199	350.99	-1000000	-1000000	-1000000	-1000000	
14.92	0.4529	8038.0	2.215	350.85	-1000000	-1000000	-1000000	-1000000	
14.94	0.4605	8067.2	2.231	350.80	-1000000	-1000000	-1000000	-1000000	
14.96	0.4680	8096.1	2.247	350.89	-1000000	-1000000	-1000000	-1000000	
14.98	0.4755	8124.6	2.263	350.86	-1000000	-1000000	-1000000	-1000000	
15.00	0.4831	8152.5	2.279	350.80	-1000000	-1000000	-1000000	-1000000	
15.02	0.4908	8180.2	2.296	350.73	-1000000	-1000000	-1000000	-1000000	
15.04	0.4987	8208.3	2.313	350.81	-1000000	-1000000	-1000000	-1000000	
15.06	0.5067	8236.8	2.329	350.70	-1000000	-1000000	-1000000	-1000000	
15.08	0.5148	8265.5	2.346	350.63	-1000000	-1000000	-1000000	-1000000	
15.10	0.5229	8294.4	2.363	350.59	-1000000	-1000000	-1000000	-1000000	
15.12	0.5311	8323.1	2.380	350.65	-1000000	-1000000	-1000000	-1000000	
15.14	0.5394	8351.4	2.397	350.84	-1000000	-1000000	-1000000	-1000000	
15.16	0.5477	8379.6	2.414	350.85	-1000000	-1000000	-1000000	-1000000	
15.18	0.5560	8407.6	2.432	350.86	-1000000	-1000000	-1000000	-1000000	
15.20	0.5644	8435.1	2.449	350.91	-1000000	-1000000	-1000000	-1000000	
15.22	0.5729	8462.0	2.467	351.02	-1000000	-1000000	-1000000	-1000000	
15.24	0.5813	8488.6	2.485	351.15	-1000000	-1000000	-1000000	-1000000	
15.26	0.5887	8512.8	2.503	351.26	-1000000	-1000000	-1000000	-1000000	
15.28	0.5955	8530.8	2.521	351.42	-1000000	-1000000	-1000000	-1000000	
15.30	0.6029	8546.3	2.539	351.56	-1000000	-1000000	-1000000	-1000000	
15.32	0.6109	8564.6	2.557	351.39	-1000000	-1000000	-1000000	-1000000	
15.34	0.6194	8586.3	2.576	351.03	-1000000	-1000000	-1000000	-1000000	
15.36	0.6282	8612.0	2.594	350.85	-1000000	-1000000	-1000000	-1000000	
15.38	0.6373	8644.8	2.613	350.75	-1000000	-1000000	-1000000	-1000000	
15.40	0.6466	8680.3	2.632	350.59	-1000000	-1000000	-1000000	-1000000	
15.42	0.6560	8712.2	2.651	350.33	-1000000	-1000000	-1000000	-1000000	
15.44	0.6656	8740.4	2.670	350.41	-1000000	-1000000	-1000000	-1000000	
15.46	0.6752	8767.1	2.689	350.67	-1000000	-1000000	-1000000	-1000000	
15.48	0.6849	8793.2	2.708	350.59	-1000000	-1000000	-1000000	-1000000	
15.50	0.6947	8818.8	2.728	350.45	-1000000	-1000000	-1000000	-1000000	
15.52	0.7047	8844.3	2.747	350.42	-1000000	-1000000	-1000000	-1000000	
15.54	0.7146	8869.9	2.767	350.51	-1000000	-1000000	-1000000	-1000000	
15.56	0.7247	8895.7	2.786	350.58	-1000000	-1000000	-1000000	-1000000	
15.58	0.7349	8920.7	2.806	350.53	-1000000	-1000000	-1000000	-1000000	
15.60	0.7453	8945.3	2.826	350.41	-1000000	-1000000	-1000000	-1000000	
15.62	0.7557	8969.8	2.846	350.55	-1000000	-1000000	-1000000	-1000000	
15.64	0.7660	8993.7	2.867	350.71	-1000000	-1000000	-1000000	-1000000	
15.66	0.7764	9017.0	2.887	350.70	-1000000	-1000000	-1000000	-1000000	
15.68	0.7867	9040.2	2.907	350.57	-1000000	-1000000	-1000000	-1000000	
15.70	0.7971	9063.3	2.928	350.36	-1000000	-1000000	-1000000	-1000000	
15.72	0.8073	9085.3	2.949	350.14	-1000000	-1000000	-1000000	-1000000	
15.74	0.8173	9106.0	2.969	350.19	-1000000	-1000000	-1000000	-1000000	
15.76	0.8268	9124.4	2.990	350.38	-1000000	-1000000	-1000000	-1000000	
15.78	0.8359	9140.0	3.011	350.53	-1000000	-1000000	-1000000	-1000000	
15.80	0.8445	9152.7	3.033	350.59	-1000000	-1000000	-1000000	-1000000	
15.82	0.8528	9162.1	3.054	350.35	-1000000	-1000000	-1000000	-1000000	
15.84	0.8618	9171.7	3.076	350.16	-1000000	-1000000	-1000000	-1000000	
15.86	0.8719	9188.0	3.097	350.34	-1000000	-1000000	-1000000	-1000000	
15.88	0.8827	9212.2	3.119	350.55	-1000000	-1000000	-1000000	-1000000	
15.90	0.8939	9241.4	3.140	350.41	-1000000	-1000000	-1000000	-1000000	
15.92	0.9052	9273.9	3.162	350.42	-1000000	-1000000	-1000000	-1000000	
15.94	0.9166	9306.0	3.184	350.69	-1000000	-1000000	-1000000	-1000000	
15.96	0.9280	9333.0	3.206	350.72	-1000000	-1000000	-1000000	-1000000	
15.98	0.9395	9354.7	3.228	350.73	-1000000	-1000000	-1000000	-1000000	
16.00	0.9512	9373.7	3.251	350.80	-1000000	-1000000	-1000000	-1000000	
16.02	0.9629	9392.6	3.273	350.72	-1000000	-1000000	-1000000	-1000000	
16.04	0.9748	9411.7	3.296	350.61	-1000000	-1000000	-1000000	-1000000	
16.06	0.9866	9431.1	3.319	350.60	-1000000	-1000000	-1000000	-1000000	
16.08	0.9987	9450.2	3.342	350.68	-1000000	-1000000	-1000000	-1000000	
16.10	1.011	9469.5	3.365	350.57	-1000000	-1000000	-1000000	-1000000	
16.12	1.023	9489.3	3.388	350.45	-1000000	-1000000	-1000000	-1000000	
16.14	1.035	9508.8	3.411	350.40	-1000000	-1000000	-1000000	-1000000	
16.16	1.048	9527.7	3.434	350.55	-1000000	-1000000	-1000000	-1000000	
16.18	1.060	9546.5	3.458	350.62	-1000000	-1000000	-1000000	-1000000	
16.20	1.073	9564.8	3.481	350.49	-1000000	-1000000	-1000000	-1000000	
16.22	1.086	9582.6	3.505	350.69	-1000000	-1000000	-1000000	-1000000	
16.24	1.099	9600.1	3.529	351.05	-1000000	-1000000	-1000000	-1000000	
16.26	1.111	9617.8	3.553	351.08	-1000000	-1000000	-1000000	-1000000	
16.28	1.124	9635.0	3.577	350.92	-1000000	-1000000	-1000000	-1000000	
16.30	1.137	9651.9	3.601	350.81	-1000000	-1000000	-1000000	-1000000	
16.32	1.150	9668.6	3.625	350.82	-1000000	-1000000	-1000000	-1000000	
16.34	1.163	9685.3	3.650	350.72	-1000000	-1000000	-1000000	-1000000	
16.36	1.176	9701.1	3.674	350.68	-1000000	-1000000	-1000000	-1000000	
16.38	1.188	9716.0	3.699	350.68	-1000000	-1000000	-1000000	-1000000	
16.40	1.201	9731.0	3.724	350.61	-1000000	-1000000	-1000000	-1000000	
16.42	1.214	9745.7	3.749	350.48	-1000000	-1000000	-1000000	-1000000	
16.44	1.227	9760.0	3.774	350.43	-1000000	-1000000	-1000000	-1000000	
16.46	1.240	9773.7	3.799	350.34	-1000000	-1000000	-1000000	-1000000	
16.48	1.252	9786.1	3.824	350.40	-1000000	-1000000	-1000000	-1000000	
16.50	1.264	9796.3	3.849	350.40	-1000000	-1000000	-1000000	-1000000	
16.52	1.275	9803.2	3.875	350.42	-1000000	-1000000	-1000000	-1000000	
16.54	1.286	9807.5	3.900	350.69	-1000000	-1000000	-1000000	-1000000	
16.56	1.298	9814.4	3.926	350.89	-1000000	-1000000	-1000000	-1000000	
16.58	1.312	9827.6	3.952	350.91	-1000000	-1000000	-1000000	-1000000	
16.60	1.326	9847.0	3.978	350.76	-1000000	-1000000	-1000000	-1000000	
16.62	1.340	9871.1	4.004	350.73	-1000000	-1000000	-1000000	-1000000	
16.64	1.355	9897.4	4.030	350.76	-1000000	-1000000	-1000000	-1000000	
16.66	1.370	9920.9	4.056	350.66	-1000000	-1000000	-1000000	-1000000	
16.68	1.384	9938.8	4.083	350.82	-1000000	-1000000	-1000000	-1000000	
16.70	1.399	9952.2	4.109	351.08	-1000000	-1000000	-1000000	-1000000	
16.72	1.414	9963.8	4.136	351.13	-1000000	-1000000	-1000000	-1000000	
16.74	1.429	9975.3	4.163	350.94	-1000000	-1000000	-1000000	-1000000	
16.76	1.444	9987.3	4.190	350.83	-1000000	-1000000	-1000000	-1000000	
16.78	1.459	9999.5	4.217	350.78	-1000000	-1000000	-1000000	-1000000	
16.80	1.474	10012	4.244	350.77	-1000000	-1000000	-1000000	-1000000	
16.82	1.490	10024	4.271	350.97	-1000000	-1000000	-1000000	-1000000	
16.84	1.505	10036	4.299	351.00	-1000000	-1000000	-1000000	-1000000	
16.86	1.520	10048	4.326	351.02	-1000000	-1000000	-1000000	-1000000	
16.88	1.536	10061	4.354	351.16	-1000000	-1000000	-1000000	-1000000	
16.90	1.552	10073	4.382	351.31	-1000000	-1000000	-1000000	-1000000	
16.92	1.568	10084	4.410	351.42	-1000000	-1000000	-1000000	-1000000	
16.94	1.584	10096	4.438	351.42	-1000000	-1000000	-1000000	-1000000	
16.96	1.600	10107	4.466	351.61	-1000000	-1000000	-1000000	-1000000	
16.98	1.616	10118	4.494	351.79	-1000000	-1000000	-1000000	-1000000	
17.00	1.632	10129	4.523	351.73	-1000000	-1000000	-1000000	-1000000	
17.02	1.649	10139	4.551	351.70	-1000000	-1000000	-1000000	-1000000	
17.04	1.665	10149	4.580	351.65	-1000000	-1000000	-1000000	-1000000	
17.06	1.682	10160	4.608	351.48	-1000000	-1000000	-1000000	-1000000	
17.08	1.699	10170	4.637	351.33	-1000000	-1000000	-1000000	-1000000	
17.10	1.716	10180	4.666	351.34	-1000000	-1000000	-1000000	-1000000	
17.12	1.733	10190	4.695	351.43	-1000000	-1000000	-1000000	-1000000	
17.14	1.750	10200	4.725	351.50	-1000000	-1000000	-1000000	-1000000	
17.16	1.767	10209	4.754	351.51	-1000000	-1000000	-1000000	-1000000	
17.18	1.785	10219	4.783	351.50	-1000000	-1000000	-1000000	-1000000	
17.20	1.802	10228	4.813	351.47	-1000000	-1000000	-1000000	-1000000	
17.22	1.820	10237	4.843	351.54	-1000000	-1000000	-1000000	-1000000	
17.24	1.838	10246	4.872	351.90	-1000000	-1000000	-1000000	-1000000	
17.26	1.856	10255	4.902	352.10	-1000000	-1000000	-1000000	-1000000	
17.28	1.874	10263	4.932	352.15	-1000000	-1000000	-1000000	-1000000	
17.30	1.892	10271	4.962	352.16	-1000000	-1000000	-1000000	-1000000	
17.32	1.910	10280	4.993	352.29	-1000000	-1000000	-1000000	-1000000	
17.34	1.929	10288	5.023	352.27	-1000000	-1000000	-1000000	-1000000	
17.36	1.947	10295	5.054	351.99	-1000000	-1000000	-1000000	-1000000	
17.38	1.966	10303	5.084	351.95	-1000000	-1000000	-1000000	-1000000	
17.40	1.985	10311	5.115	352.05	-1000000	-1000000	-1000000	-1000000	
17.42	2.004	10318	5.146	352.10	-1000000	-1000000	-1000000	-1000000	
17.44	2.023	10326	5.177	352.34	-1000000	-1000000	-1000000	-1000000	
17.46	2.042	10333	5.208	352.47	-1000000	-1000000	-1000000	-1000000	
17.48	2.061	10339	5.239	352.41	-1000000	-1000000	-1000000	-1000000	
17.50	2.081	10345	5.271	352.55	-1000000	-1000000	-1000000	-1000000	
17.52	2.100	10352	5.302	352.67	-1000000	-1000000	-1000000	-1000000	
17.54	2.120	10359	5.334	352.67	-1000000	-1000000	-1000000	-1000000	
17.56	2.140	10365	5.365	352.67	-1000000	-1000000	-1000000	-1000000	
17.58	2.160	10372	5.397	352.87	-1000000	-1000000	-1000000	-1000000	
17.60	2.180	10378	5.429	353.13	-1000000	-1000000	-1000000	-1000000	
17.62	2.201	10384	5.462	353.05	-1000000	-1000000	-1000000	-1000000	
17.64	2.222	10390	5.494	352.85	-1000000	-1000000	-1000000	-1000000	
17.66	2.242	10395	5.526	352.96	-1000000	-1000000	-1000000	-1000000	
17.68	2.263	10400	5.558	353.08	-1000000	-1000000	-1000000	-1000000	
17.70	2.284	10406	5.591	353.04	-1000000	-1000000	-1000000	-1000000	
17.72	2.306	10411	5.623	353.05	-1000000	-1000000	-1000000	-1000000	
17.74	2.327	10415	5.656	353.10	-1000000	-1000000	-1000000	-1000000	
17.76	2.349	10420	5.689	353.16	-1000000	-1000000	-1000000	-1000000	
17.78	2.371	10424	5.722	353.33	-1000000	-1000000	-1000000	-1000000	
17.80	2.393	10429	5.756	353.33	-1000000	-1000000	-1000000	-1000000	
17.82	2.415	10434	5.789	353.22	-1000000	-1000000	-1000000	-1000000	
17.84	2.438	10438	5.822	353.32	-1000000	-1000000	-1000000	-1000000	
17.86	2.460	10442	5.856	353.58	-1000000	-1000000	-1000000	-1000000	
17.88	2.483	10446	5.889	353.78	-1000000	-1000000	-1000000	-1000000	
17.90	2.506	10450	5.923	353.91	-1000000	-1000000	-1000000	-1000000	
17.92	2.530	10454	5.957	354.00	-1000000	-1000000	-1000000	-1000000	
17.94	2.553	10457	5.991	354.07	-1000000	-1000000	-1000000	-1000000	
17.96	2.577	10460	6.025	354.22	-1000000	-1000000	-1000000	-1000000	
17.98	2.601	10463	6.059	354.53	-1000000	-1000000	-1000000	-1000000	
18.00	2.625	10467	6.094	354.54	-1000000	-1000000	-1000000	-1000000	
18.02	2.650	10470	6.128	354.49	-1000000	-1000000	-1000000	-1000000	
18.04	2.674	10473	6.163	354.51	-1000000	-1000000	-1000000	-1000000	
18.06	2.699	10475	6.198	354.43	-1000000	-1000000	-1000000	-1000000	
18.08	2.725	10477	6.232	354.30	-1000000	-1000000	-1000000	-1000000	
18.10	2.750	10479	6.267	354.44	-1000000	-1000000	-1000000	-1000000	
18.12	2.776	10481	6.302	354.75	-1000000	-1000000	-1000000	-1000000	
18.14	2.802	10482	6.338	355.03	-1000000	-1000000	-1000000	-1000000	
18.16	2.828	10484	6.373	355.12	-1000000	-1000000	-1000000	-1000000	
18.18	2.855	10485	6.408	354.98	-1000000	-1000000	-1000000	-1000000	
18.20	2.882	10486	6.444	355.22	-1000000	-1000000	-1000000	-1000000	
18.22	2.909	10486	6.480	355.58	-1000000	-1000000	-1000000	-1000000	
18.24	2.936	10487	6.515	355.78	-1000000	-1000000	-1000000	-1000000	
18.26	2.964	10488	6.551	355.81	-1000000	-1000000	-1000000	-1000000	
18.28	2.992	10488	6.587	356.06	-1000000	-1000000	-1000000	-1000000	
18.30	3.021	10489	6.623	356.31	-1000000	-1000000	-1000000	-1000000	
18.32	3.049	10488	6.660	356.43	-1000000	-1000000	-1000000	-1000000	
18.34	3.078	10487	6.696	356.54	-1000000	-1000000	-1000000	-1000000	
18.36	3.108	10486	6.733	356.73	-1000000	-1000000	-1000000	-1000000	
18.38	3.138	10485	6.770	356.87	-1000000	-1000000	-1000000	-1000000	
18.40	3.168	10484	6.806	357.08	-1000000	-1000000	-1000000	-1000000	
18.42	3.198	10482	6.843	357.11	-1000000	-1000000	-1000000	-1000000	
18.44	3.229	10480	6.880	357.24	-1000000	-1000000	-1000000	-1000000	
18.46	3.260	10478	6.917	357.47	-1000000	-1000000	-1000000	-1000000	
18.48	3.291	10475	6.955	357.66	-1000000	-1000000	-1000000	-1000000	
18.50	3.323	10471	6.992	357.76	-1000000	-1000000	-1000000	-1000000	
18.52	3.355	10468	7.030	357.80	-1000000	-1000000	-1000000	-1000000	
18.54	3.388	10464	7.067	358.03	-1000000	-1000000	-1000000	-1000000	
18.56	3.421	10459	7.105	358.26	-1000000	-1000000	-1000000	-1000000	
18.58	3.454	10454	7.143	358.59	-1000000	-1000000	-1000000	-1000000	
18.60	3.488	10448	7.181	359.00	-1000000	-1000000	-1000000	-1000000	
18.62	3.522	10442	7.219	359.32	-1000000	-1000000	-1000000	-1000000	
18.64	3.556	10435	7.257	359.58	-1000000	-1000000	-1000000	-1000000	
18.66	3.591	10428	7.295	359.87	-1000000	-1000000	-1000000	-1000000	
18.68	3.626	10420	7.334	360.14	-1000000	-1000000	-1000000	-1000000	
18.70	3.662	10412	7.372	360.40	-1000000	-1000000	-1000000	-1000000	
18.72	3.698	10403	7.411	360.57	-1000000	-1000000	-1000000	-1000000	
18.74	3.734	10393	7.450	360.90	-1000000	-1000000	-1000000	-1000000	
18.76	3.771	10383	7.489	361.08	-1000000	-1000000	-1000000	-1000000	
18.78	3.808	10372	7.528	361.27	-1000000	-1000000	-1000000	-1000000	
18.80	3.845	10359	7.567	361.58	-1000000	-1000000	-1000000	-1000000	
18.82	3.883	10346	7.606	361.91	-1000000	-1000000	-1000000	-1000000	
18.84	3.921	10332	7.645	362.34	-1000000	-1000000	-1000000	-1000000	
18.86	3.960	10316	7.685	362.84	-1000000	-1000000	-1000000	-1000000	
18.88	3.998	10300	7.725	363.19	-1000000	-1000000	-1000000	-1000000	
18.90	4.038	10283	7.764	363.53	-1000000	-1000000	-1000000	-1000000	
18.92	4.073	10263	7.804	363.95	-1000000	-1000000	-1000000	-1000000	
18.94	4.097	10229	7.844	364.30	-1000000	-1000000	-1000000	-1000000	
18.96	4.111	10166	7.884	364.46	-1000000	-1000000	-1000000	-1000000	
18.98	4.119	10072	7.918	364.56	-1000000	-1000000	-1000000	-1000000	
19.00	4.124	9955.8	7.938	364.56	-1000000	-1000000	-1000000	-1000000	
19.02	4.128	9825.2	7.948	364.54	-1000000	-1000000	-1000000	-1000000	
19.04	4.130	9694.9	7.952	364.44	-1000000	-1000000	-1000000	-1000000	
19.06	4.133	9583.6	7.954	364.24	-1000000	-1000000	-1000000	-1000000	
19.08	4.134	9495.5	7.955	364.10	-1000000	-1000000	-1000000	-1000000	
19.10	4.136	9424.0	7.955	363.95	-1000000	-1000000	-1000000	-1000000	
19.12	4.137	9364.0	7.955	363.77	-1000000	-1000000	-1000000	-1000000	
19.14	4.138	9313.0	7.955	363.65	-1000000	-1000000	-1000000	-1000000	
19.16	4.139	9269.0	7.955	363.59	-1000000	-1000000	-1000000	-1000000	
19.18	4.140	9231.0	7.955	363.59	-1000000	-1000000	-1000000	-1000000	
19.20	4.141	9197.6	7.955	363.64	-1000000	-1000000	-1000000	-1000000	
19.22	4.142	9167.7	7.955	363.61	-1000000	-1000000	-1000000	-1000000	
19.24	4.142	9141.1	7.955	363.52	-1000000	-1000000	-1000000	-1000000	
19.26	4.143	9117.1	7.955	363.48	-1000000	-1000000	-1000000	-1000000	
19.28	4.144	9095.3	7.955	363.46	-1000000	-1000000	-1000000	-1000000	
19.30	4.144	9075.3	7.955	363.28	-1000000	-1000000	-1000000	-1000000	
19.32	4.145	9057.1	7.955	363.15	-1000000	-1000000	-1000000	-1000000	
19.34	4.145	9040.0	7.955	363.08	-1000000	-1000000	-1000000	-1000000	
19.36	4.146	9024.1	7.955	362.97	-1000000	-1000000	-1000000	-1000000	
19.38	4.146	9009.3	7.955	363.08	-1000000	-1000000	-1000000	-1000000	
19.40	4.147	8995.3	7.955	362.97	-1000000	-1000000	-1000000	-1000000	
19.42	4.147	8982.5	7.955	362.58	-1000000	-1000000	-1000000	-1000000	
19.44	4.147	8970.5	7.955	362.13	-1000000	-1000000	-1000000	-1000000	
19.46	4.148	8959.1	7.955	362.00	-1000000	-1000000	-1000000	-1000000	
19.48	4.148	8947.9	7.955	362.05	-1000000	-1000000	-1000000	-1000000	
19.50	4.148	8937.0	7.955	362.13	-1000000	-1000000	-1000000	-1000000	
19.52	4.149	8927.5	7.955	362.27	-1000000	-1000000	-1000000	-1000000	
19.54	4.149	8918.5	7.955	362.28	-1000000	-1000000	-1000000	-1000000	
19.56	4.149	8909.9	7.955	362.16	-1000000	-1000000	-1000000	-1000000	
19.58	4.149	8901.6	7.955	362.03	-1000000	-1000000	-1000000	-1000000	
19.60	4.150	8893.6	7.955	362.07	-1000000	-1000000	-1000000	-1000000	
19.62	4.150	8885.8	7.955	362.03	-1000000	-1000000	-1000000	-1000000	
19.64	4.150	8878.7	7.955	361.82	-1000000	-1000000	-1000000	-1000000	
19.66	4.150	8871.8	7.955	361.57	-1000000	-1000000	-1000000	-1000000	
19.68	4.151	8864.9	7.955	361.50	-1000000	-1000000	-1000000	-1000000	
19.70	4.151	8858.1	7.955	361.36	-1000000	-1000000	-1000000	-1000000	
19.72	4.151	8851.4	7.955	361.18	-1000000	-1000000	-1000000	-1000000	
19.74	4.151	8844.8	7.955	361.02	-1000000	-1000000	-1000000	-1000000	
19.76	4.151	8838.1	7.955	360.74	-1000000	-1000000	-1000000	-1000000	
19.78	4.152	8831.4	7.955	360.65	-1000000	-1000000	-1000000	-1000000	
19.80	4.152	8825.4	7.955	360.74	-1000000	-1000000	-1000000	-1000000	
19.82	4.152	8819.7	7.955	360.93	-1000000	-1000000	-1000000	-1000000	
19.84	4.152	8814.0	7.955	360.98	-1000000	-1000000	-1000000	-1000000	
19.86	4.152	8808.5	7.955	360.86	-1000000	-1000000	-1000000	-1000000	
19.88	4.153	8803.3	7.955	360.75	-1000000	-1000000	-1000000	-1000000	
19.90	4.153	8798.3	7.955	360.69	-1000000	-1000000	-1000000	-1000000	
19.92	4.153	8793.4	7.955	360.62	-1000000	-1000000	-1000000	-1000000	
19.94	4.153	8788.4	7.954	360.53	-1000000	-1000000	-1000000	-1000000	
19.96	4.153	8783.7	7.954	360.45	-1000000	-1000000	-1000000	-1000000	
19.98	4.153	8778.6	7.954	360.43	-1000000	-1000000	-1000000	-1000000	
20.00	4.153	8773.6	7.954	360.33	-1000000	-1000000	-1000000	-1000000	
20.02	4.154	8768.7	7.954	360.16	-1000000	-1000000	-1000000	-1000000	
20.04	4.154	8763.8	7.954	360.05	-1000000	-1000000	-1000000	-1000000	
20.06	4.154	8758.9	7.953	359.96	-1000000	-1000000	-1000000	-1000000	
20.08	4.154	8754.0	7.953	359.74	-1000000	-1000000	-1000000	-1000000	
20.10	4.154	8749.1	7.953	359.43	-1000000	-1000000	-1000000	-1000000	
20.12	4.154	8744.1	7.953	359.29	-1000000	-1000000	-1000000	-1000000	
20.14	4.154	8739.0	7.953	359.35	-1000000	-1000000	-1000000	-1000000	
20.16	4.154	8733.8	7.953	359.31	-1000000	-1000000	-1000000	-1000000	
20.18	4.154	8728.8	7.952	359.26	-1000000	-1000000	-1000000	-1000000	
20.20	4.155	8723.9	7.952	359.32	-1000000	-1000000	-1000000	-1000000	
20.22	4.155	8718.8	7.952	359.47	-1000000	-1000000	-1000000	-1000000	
20.24	4.155	8713.8	7.952	359.61	-1000000	-1000000	-1000000	-1000000	
20.26	4.155	8708.6	7.951	359.49	-1000000	-1000000	-1000000	-1000000	
20.28	4.155	8703.3	7.951	359.23	-1000000	-1000000	-1000000	-1000000	
20.30	4.155	8697.8	7.951	359.09	-1000000	-1000000	-1000000	-1000000	
20.32	4.155	8692.3	7.951	359.07	-1000000	-1000000	-1000000	-1000000	
20.34	4.155	8686.6	7.951	358.86	-1000000	-1000000	-1000000	-1000000	
20.36	4.155	8680.7	7.950	358.66	-1000000	-1000000	-1000000	-1000000	
20.38	4.155	8674.8	7.950	358.56	-1000000	-1000000	-1000000	-1000000	
20.40	4.155	8668.6	7.950	358.39	-1000000	-1000000	-1000000	-1000000	
20.42	4.155	8662.7	7.949	358.34	-1000000	-1000000	-1000000	-1000000	
20.44	4.155	8656.7	7.949	358.35	-1000000	-1000000	-1000000	-1000000	
20.46	4.155	8650.3	7.949	358.33	-1000000	-1000000	-1000000	-1000000	
20.48	4.155	8643.5	7.949	358.23	-1000000	-1000000	-1000000	-1000000	
20.50	4.155	8636.6	7.948	358.11	-1000000	-1000000	-1000000	-1000000	
20.52	4.155	8629.9	7.948	358.12	-1000000	-1000000	-1000000	-1000000	
20.54	4.155	8623.2	7.947	358.13	-1000000	-1000000	-1000000	-1000000	
20.56	4.155	8616.5	7.947	357.99	-1000000	-1000000	-1000000	-1000000	
20.58	4.155	8609.8	7.947	357.92	-1000000	-1000000	-1000000	-1000000	
20.60	4.155	8602.4	7.946	357.89	-1000000	-1000000	-1000000	-1000000	
20.62	4.155	8595.0	7.946	357.84	-1000000	-1000000	-1000000	-1000000	
20.64	4.155	8587.8	7.946	357.80	-1000000	-1000000	-1000000	-1000000	
20.66	4.155	8580.4	7.945	357.70	-1000000	-1000000	-1000000	-1000000	
20.68	4.155	8572.7	7.945	357.69	-1000000	-1000000	-1000000	-1000000	
20.70	4.155	8564.9	7.945	357.65	-1000000	-1000000	-1000000	-1000000	
20.72	4.155	8557.2	7.944	357.47	-1000000	-1000000	-1000000	-1000000	
20.74	4.155	8549.4	7.944	357.24	-1000000	-1000000	-1000000	-1000000	
20.76	4.155	8541.3	7.944	357.08	-1000000	-1000000	-1000000	-1000000	
20.78	4.155	8533.2	7.943	356.82	-1000000	-1000000	-1000000	-1000000	
20.80	4.155	8525.3	7.943	356.69	-1000000	-1000000	-1000000	-1000000	
20.82	4.155	8517.0	7.942	356.72	-1000000	-1000000	-1000000	-1000000	
20.84	4.155	8508.5	7.942	356.79	-1000000	-1000000	-1000000	-1000000	
20.86	4.155	8500.1	7.941	356.92	-1000000	-1000000	-1000000	-1000000	
20.88	4.155	8491.5	7.941	356.91	-1000000	-1000000	-1000000	-1000000	
20.90	4.155	8482.9	7.940	356.85	-1000000	-1000000	-1000000	-1000000	
20.92	4.155	8474.4	7.940	356.80	-1000000	-1000000	-1000000	-1000000	
20.94	4.155	8465.6	7.940	356.75	-1000000	-1000000	-1000000	-1000000	
20.96	4.155	8456.5	7.939	356.64	-1000000	-1000000	-1000000	-1000000	
20.98	4.155	8446.9	7.939	356.43	-1000000	-1000000	-1000000	-1000000	
21.00	4.155	8437.3	7.938	356.23	-1000000	-1000000	-1000000	-1000000	
21.02	4.155	8427.9	7.938	356.19	-1000000	-1000000	-1000000	-1000000	
21.04	4.155	8418.1	7.937	356.00	-1000000	-1000000	-1000000	-1000000	
21.06	4.155	8408.1	7.937	355.87	-1000000	-1000000	-1000000	-1000000	
21.08	4.154	8398.1	7.936	355.86	-1000000	-1000000	-1000000	-1000000	
21.10	4.154	8388.1	7.936	355.80	-1000000	-1000000	-1000000	-1000000	
21.12	4.154	8377.9	7.935	355.64	-1000000	-1000000	-1000000	-1000000	
21.14	4.154	8367.6	7.935	355.67	-1000000	-1000000	-1000000	-1000000	
21.16	4.154	8357.5	7.934	355.68	-1000000	-1000000	-1000000	-1000000	
21.18	4.154	8347.7	7.934	355.60	-1000000	-1000000	-1000000	-1000000	
21.20	4.154	8337.7	7.933	355.53	-1000000	-1000000	-1000000	-1000000	
21.22	4.154	8327.5	7.932	355.60	-1000000	-1000000	-1000000	-1000000	
21.24	4.154	8316.8	7.932	355.70	-1000000	-1000000	-1000000	-1000000	
21.26	4.154	8306.0	7.931	355.62	-1000000	-1000000	-1000000	-1000000	
21.28	4.154	8295.0	7.931	355.38	-1000000	-1000000	-1000000	-1000000	
21.30	4.154	8283.9	7.930	355.25	-1000000	-1000000	-1000000	-1000000	
21.32	4.153	8272.4	7.930	355.03	-1000000	-1000000	-1000000	-1000000	
21.34	4.153	8260.7	7.929	354.77	-1000000	-1000000	-1000000	-1000000	
21.36	4.153	8248.9	7.928	354.79	-1000000	-1000000	-1000000	-1000000	
21.38	4.153	8237.2	7.928	354.84	-1000000	-1000000	-1000000	-1000000	
21.40	4.153	8225.4	7.927	354.67	-1000000	-1000000	-1000000	-1000000	
21.42	4.153	8213.4	7.927	354.50	-1000000	-1000000	-1000000	-1000000	
21.44	4.153	8201.2	7.926	354.40	-1000000	-1000000	-1000000	-1000000	
21.46	4.153	8188.6	7.926	354.28	-1000000	-1000000	-1000000	-1000000	
21.48	4.153	8176.0	7.925	354.13	-1000000	-1000000	-1000000	-1000000	
21.50	4.152	8163.1	7.924	354.14	-1000000	-1000000	-1000000	-1000000	
21.52	4.152	8150.2	7.923	353.99	-1000000	-1000000	-1000000	-1000000	
21.54	4.152	8137.4	7.923	354.06	-1000000	-1000000	-1000000	-1000000	
21.56	4.152	8124.2	7.922	354.24	-1000000	-1000000	-1000000	-1000000	
21.58	4.152	8110.7	7.921	354.28	-1000000	-1000000	-1000000	-1000000	
21.60	4.152	8097.3	7.921	354.20	-1000000	-1000000	-1000000	-1000000	
21.62	4.152	8084.0	7.920	354.15	-1000000	-1000000	-1000000	-1000000	
21.64	4.152	8070.8	7.920	354.10	-1000000	-1000000	-1000000	-1000000	
21.66	4.152	8057.3	7.919	353.94	-1000000	-1000000	-1000000	-1000000	
21.68	4.151	8043.9	7.918	353.78	-1000000	-1000000	-1000000	-1000000	
21.70	4.151	8030.3	7.918	353.72	-1000000	-1000000	-1000000	-1000000	
21.72	4.151	8016.2	7.917	353.59	-1000000	-1000000	-1000000	-1000000	
21.74	4.151	8002.2	7.916	353.32	-1000000	-1000000	-1000000	-1000000	
21.76	4.151	7988.3	7.915	353.22	-1000000	-1000000	-1000000	-1000000	
21.78	4.151	7973.9	7.914	353.14	-1000000	-1000000	-1000000	-1000000	
21.80	4.151	7959.3	7.914	353.06	-1000000	-1000000	-1000000	-1000000	
21.82	4.150	7944.6	7.913	352.95	-1000000	-1000000	-1000000	-1000000	
21.84	4.150	7930.1	7.912	352.97	-1000000	-1000000	-1000000	-1000000	
21.86	4.150	7915.7	7.912	352.99	-1000000	-1000000	-1000000	-1000000	
21.88	4.150	7901.2	7.911	352.82	-1000000	-1000000	-1000000	-1000000	
21.90	4.150	7886.5	7.910	352.80	-1000000	-1000000	-1000000	-1000000	
21.92	4.150	7871.5	7.909	352.89	-1000000	-1000000	-1000000	-1000000	
21.94	4.149	7856.1	7.908	353.09	-1000000	-1000000	-1000000	-1000000	
21.96	4.149	7840.7	7.908	353.17	-1000000	-1000000	-1000000	-1000000	
21.98	4.149	7825.1	7.907	353.07	-1000000	-1000000	-1000000	-1000000	
22.00	4.149	7809.4	7.906	352.89	-1000000	-1000000	-1000000	-1000000	
22.02	4.149	7793.6	7.905	352.82	-1000000	-1000000	-1000000	-1000000	
22.04	4.149	7777.9	7.905	352.84	-1000000	-1000000	-1000000	-1000000	
22.06	4.148	7762.3	7.904	352.73	-1000000	-1000000	-1000000	-1000000	
22.08	4.148	7746.2	7.903	352.47	-1000000	-1000000	-1000000	-1000000	
22.10	4.148	7729.5	7.902	352.14	-1000000	-1000000	-1000000	-1000000	
22.12	4.148	7713.2	7.901	352.09	-1000000	-1000000	-1000000	-1000000	
22.14	4.148	7697.3	7.900	352.04	-1000000	-1000000	-1000000	-1000000	
22.16	4.148	7680.9	7.899	351.89	-1000000	-1000000	-1000000	-1000000	
22.18	4.147	7663.6	7.898	351.78	-1000000	-1000000	-1000000	-1000000	
22.20	4.147	7646.1	7.898	351.78	-1000000	-1000000	-1000000	-1000000	
22.22	4.147	7628.9	7.897	351.87	-1000000	-1000000	-1000000	-1000000	
22.24	4.147	7612.1	7.896	351.86	-1000000	-1000000	-1000000	-1000000	
22.26	4.147	7594.8	7.895	351.73	-1000000	-1000000	-1000000	-1000000	
22.28	4.147	7577.2	7.894	351.70	-1000000	-1000000	-1000000	-1000000	
22.30	4.146	7559.8	7.893	351.79	-1000000	-1000000	-1000000	-1000000	
22.32	4.146	7542.2	7.892	351.72	-1000000	-1000000	-1000000	-1000000	
22.34	4.146	7524.4	7.891	351.65	-1000000	-1000000	-1000000	-1000000	
22.36	4.146	7506.5	7.890	351.70	-1000000	-1000000	-1000000	-1000000	
22.38	4.146	7488.6	7.889	351.51	-1000000	-1000000	-1000000	-1000000	
22.40	4.145	7470.9	7.888	351.08	-1000000	-1000000	-1000000	-1000000	
22.42	4.145	7453.0	7.887	350.94	-1000000	-1000000	-1000000	-1000000	
22.44	4.145	7434.7	7.887	350.85	-1000000	-1000000	-1000000	-1000000	
22.46	4.145	7416.5	7.886	350.70	-1000000	-1000000	-1000000	-1000000	
22.48	4.145	7398.2	7.885	350.72	-1000000	-1000000	-1000000	-1000000	
22.50	4.145	7379.5	7.884	350.52	-1000000	-1000000	-1000000	-1000000	
22.52	4.144	7360.8	7.883	350.48	-1000000	-1000000	-1000000	-1000000	
22.54	4.144	7342.6	7.882	350.51	-1000000	-1000000	-1000000	-1000000	
22.56	4.144	7324.5	7.881	350.51	-1000000	-1000000	-1000000	-1000000	
22.58	4.144	7305.9	7.880	350.67	-1000000	-1000000	-1000000	-1000000	
22.60	4.144	7287.1	7.879	350.84	-1000000	-1000000	-1000000	-1000000	
22.62	4.143	7267.9	7.878	350.82	-1000000	-1000000	-1000000	-1000000	
22.64	4.143	7248.8	7.877	350.60	-1000000	-1000000	-1000000	-1000000	
22.66	4.143	7229.3	7.875	350.34	-1000000	-1000000	-1000000	-1000000	
22.68	4.143	7209.7	7.874	350.18	-1000000	-1000000	-1000000	-1000000	
22.70	4.142	7190.3	7.873	349.84	-1000000	-1000000	-1000000	-1000000	
22.72	4.142	7170.6	7.872	349.63	-1000000	-1000000	-1000000	-1000000	
22.74	4.142	7150.5	7.871	349.58	-1000000	-1000000	-1000000	-1000000	
22.76	4.142	7130.3	7.870	349.46	-1000000	-1000000	-1000000	-1000000	
22.78	4.142	7109.9	7.869	349.34	-1000000	-1000000	-1000000	-1000000	
22.80	4.141	7089.8	7.868	349.34	-1000000	-1000000	-1000000	-1000000	
22.82	4.141	7069.7	7.867	349.24	-1000000	-1000000	-1000000	-1000000	
22.84	4.141	7049.5	7.866	349.14	-1000000	-1000000	-1000000	-1000000	
22.86	4.141	7028.8	7.865	349.22	-1000000	-1000000	-1000000	-1000000	
22.88	4.141	7007.7	7.864	349.28	-1000000	-1000000	-1000000	-1000000	
22.90	4.140	6986.0	7.863	349.13	-1000000	-1000000	-1000000	-1000000	
22.92	4.140	6964.3	7.862	349.07	-1000000	-1000000	-1000000	-1000000	
22.94	4.140	6942.5	7.860	349.37	-1000000	-1000000	-1000000	-1000000	
22.96	4.140	6920.7	7.859	349.57	-1000000	-1000000	-1000000	-1000000	
22.98	4.140	6898.1	7.858	349.57	-1000000	-1000000	-1000000	-1000000	
23.00	4.139	6875.0	7.857	349.41	-1000000	-1000000	-1000000	-1000000	
23.02	4.139	6851.2	7.856	349.29	-1000000	-1000000	-1000000	-1000000	
23.04	4.139	6826.1	7.855	349.27	-1000000	-1000000	-1000000	-1000000	
23.06	4.139	6799.6	7.854	349.28	-1000000	-1000000	-1000000	-1000000	
23.08	4.139	6772.1	7.852	349.49	-1000000	-1000000	-1000000	-1000000	
23.10	4.138	6744.2	7.851	349.76	-1000000	-1000000	-1000000	-1000000	
23.12	4.138	6715.8	7.850	349.63	-1000000	-1000000	-1000000	-1000000	
23.14	4.138	6686.8	7.849	349.48	-1000000	-1000000	-1000000	-1000000	
23.16	4.138	6657.9	7.848	349.81	-1000000	-1000000	-1000000	-1000000	
23.18	4.138	6630.1	7.847	350.34	-1000000	-1000000	-1000000	-1000000	
23.20	4.137	6603.1	7.845	350.69	-1000000	-1000000	-1000000	-1000000	
23.22	4.137	6577.1	7.844	350.79	-1000000	-1000000	-1000000	-1000000	
23.24	4.137	6551.7	7.843	350.80	-1000000	-1000000	-1000000	-1000000	
23.26	4.137	6526.6	7.842	351.02	-1000000	-1000000	-1000000	-1000000	
23.28	4.136	6501.9	7.840	351.25	-1000000	-1000000	-1000000	-1000000	
23.30	4.136	6477.2	7.839	351.28	-1000000	-1000000	-1000000	-1000000	
23.32	4.136	6452.7	7.838	351.08	-1000000	-1000000	-1000000	-1000000	
23.34	4.136	6428.4	7.836	350.73	-1000000	-1000000	-1000000	-1000000	
23.36	4.135	6404.1	7.835	350.43	-1000000	-1000000	-1000000	-1000000	
23.38	4.135	6379.8	7.834	350.45	-1000000	-1000000	-1000000	-1000000	
23.40	4.135	6355.5	7.833	350.50	-1000000	-1000000	-1000000	-1000000	
23.42	4.135	6331.3	7.832	350.24	-1000000	-1000000	-1000000	-1000000	
23.44	4.134	6306.9	7.831	350.02	-1000000	-1000000	-1000000	-1000000	
23.46	4.134	6282.8	7.829	350.07	-1000000	-1000000	-1000000	-1000000	
23.48	4.134	6258.4	7.828	350.03	-1000000	-1000000	-1000000	-1000000	
23.50	4.134	6233.8	7.826	349.86	-1000000	-1000000	-1000000	-1000000	
23.52	4.133	6209.1	7.825	349.77	-1000000	-1000000	-1000000	-1000000	
23.54	4.133	6184.3	7.824	349.80	-1000000	-1000000	-1000000	-1000000	
23.56	4.133	6159.5	7.822	349.85	-1000000	-1000000	-1000000	-1000000	
23.58	4.133	6134.9	7.821	349.96	-1000000	-1000000	-1000000	-1000000	
23.60	4.132	6110.4	7.820	350.09	-1000000	-1000000	-1000000	-1000000	
23.62	4.132	6085.9	7.818	350.14	-1000000	-1000000	-1000000	-1000000	
23.64	4.132	6061.1	7.817	350.16	-1000000	-1000000	-1000000	-1000000	
23.66	4.131	6036.2	7.816	350.04	-1000000	-1000000	-1000000	-1000000	
23.68	4.131	6011.1	7.814	349.87	-1000000	-1000000	-1000000	-1000000	
23.70	4.131	5986.0	7.813	349.62	-1000000	-1000000	-1000000	-1000000	
23.72	4.131	5960.9	7.812	349.27	-1000000	-1000000	-1000000	-1000000	
23.74	4.130	5935.6	7.810	348.94	-1000000	-1000000	-1000000	-1000000	
23.76	4.130	5910.3	7.809	348.96	-1000000	-1000000	-1000000	-1000000	
23.78	4.130	5884.6	7.808	348.93	-1000000	-1000000	-1000000	-1000000	
23.80	4.129	5858.6	7.806	348.81	-1000000	-1000000	-1000000	-1000000	
23.82	4.129	5832.4	7.804	348.88	-1000000	-1000000	-1000000	-1000000	
23.84	4.129	5805.8	7.803	349.07	-1000000	-1000000	-1000000	-1000000	
23.86	4.129	5779.0	7.802	349.18	-1000000	-1000000	-1000000	-1000000	
23.88	4.128	5752.2	7.800	349.13	-1000000	-1000000	-1000000	-1000000	
23.90	4.128	5725.1	7.799	349.06	-1000000	-1000000	-1000000	-1000000	
23.92	4.128	5697.0	7.798	348.99	-1000000	-1000000	-1000000	-1000000	
23.94	4.128	5667.9	7.796	348.92	-1000000	-1000000	-1000000	-1000000	
23.96	4.127	5637.9	7.794	349.00	-1000000	-1000000	-1000000	-1000000	
23.98	4.127	5606.5	7.793	349.30	-1000000	-1000000	-1000000	-1000000	
24.00	4.127	5574.0	7.791	349.82	-1000000	-1000000	-1000000	-1000000	
24.02	4.127	5540.0	7.790	350.09	-1000000	-1000000	-1000000	-1000000	
24.04	4.126	5505.0	7.789	350.08	-1000000	-1000000	-1000000	-1000000	
24.06	4.126	5469.8	7.787	350.11	-1000000	-1000000	-1000000	-1000000	
24.08	4.126	5435.2	7.785	350.20	-1000000	-1000000	-1000000	-1000000	
24.10	4.126	5402.0	7.784	350.32	-1000000	-1000000	-1000000	-1000000	
24.12	4.125	5370.1	7.783	350.48	-1000000	-1000000	-1000000	-1000000	
24.14	4.125	5339.6	7.781	350.64	-1000000	-1000000	-1000000	-1000000	
24.16	4.125	5310.4	7.779	350.76	-1000000	-1000000	-1000000	-1000000	
24.18	4.124	5281.6	7.778	350.97	-1000000	-1000000	-1000000	-1000000	
24.20	4.124	5252.6	7.776	351.03	-1000000	-1000000	-1000000	-1000000	
24.22	4.124	5223.9	7.775	350.86	-1000000	-1000000	-1000000	-1000000	
24.24	4.123	5195.2	7.773	350.88	-1000000	-1000000	-1000000	-1000000	
24.26	4.123	5166.5	7.772	350.83	-1000000	-1000000	-1000000	-1000000	
24.28	4.123	5138.1	7.770	350.67	-1000000	-1000000	-1000000	-1000000	
24.30	4.122	5109.7	7.769	350.54	-1000000	-1000000	-1000000	-1000000	
24.32	4.122	5081.2	7.767	350.50	-1000000	-1000000	-1000000	-1000000	
24.34	4.122	5052.6	7.765	350.45	-1000000	-1000000	-1000000	-1000000	
24.36	4.121	5024.2	7.764	350.58	-1000000	-1000000	-1000000	-1000000	
24.38	4.121	4995.5	7.762	350.63	-1000000	-1000000	-1000000	-1000000	
24.40	4.121	4966.3	7.760	350.45	-1000000	-1000000	-1000000	-1000000	
24.42	4.121	4937.1	7.759	350.33	-1000000	-1000000	-1000000	-1000000	
24.44	4.120	4908.0	7.757	350.13	-1000000	-1000000	-1000000	-1000000	
24.46	4.120	4879.0	7.756	349.94	-1000000	-1000000	-1000000	-1000000	
24.48	4.119	4849.4	7.754	349.83	-1000000	-1000000	-1000000	-1000000	
24.50	4.119	4819.5	7.753	349.90	-1000000	-1000000	-1000000	-1000000	
24.52	4.119	4790.0	7.751	349.96	-1000000	-1000000	-1000000	-1000000	
24.54	4.119	4760.6	7.749	349.78	-1000000	-1000000	-1000000	-1000000	
24.56	4.118	4731.4	7.747	349.53	-1000000	-1000000	-1000000	-1000000	
24.58	4.118	4702.3	7.746	349.48	-1000000	-1000000	-1000000	-1000000	
24.60	4.118	4672.8	7.744	349.58	-1000000	-1000000	-1000000	-1000000	
24.62	4.117	4643.2	7.742	349.77	-1000000	-1000000	-1000000	-1000000	
24.64	4.117	4613.7	7.741	349.71	-1000000	-1000000	-1000000	-1000000	
24.66	4.116	4583.4	7.739	349.66	-1000000	-1000000	-1000000	-1000000	
24.68	4.116	4552.6	7.737	349.59	-1000000	-1000000	-1000000	-1000000	
24.70	4.116	4522.0	7.736	349.56	-1000000	-1000000	-1000000	-1000000	
24.72	4.115	4491.2	7.734	349.45	-1000000	-1000000	-1000000	-1000000	
24.74	4.115	4459.9	7.732	349.15	-1000000	-1000000	-1000000	-1000000	
24.76	4.115	4428.4	7.730	349.05	-1000000	-1000000	-1000000	-1000000	
24.78	4.114	4396.7	7.729	349.09	-1000000	-1000000	-1000000	-1000000	
24.80	4.114	4364.4	7.727	349.06	-1000000	-1000000	-1000000	-1000000	
24.82	4.114	4331.5	7.725	349.22	-1000000	-1000000	-1000000	-1000000	
24.84	4.113	4297.4	7.724	349.50	-1000000	-1000000	-1000000	-1000000	
24.86	4.113	4262.5	7.722	349.74	-1000000	-1000000	-1000000	-1000000	
24.88	4.113	4226.9	7.720	349.71	-1000000	-1000000	-1000000	-1000000	
24.90	4.112	4190.1	7.718	349.64	-1000000	-1000000	-1000000	-1000000	
24.92	4.112	4152.9	7.716	349.84	-1000000	-1000000	-1000000	-1000000	
24.94	4.112	4116.0	7.715	350.30	-1000000	-1000000	-1000000	-1000000	
24.96	4.111	4079.6	7.713	350.66	-1000000	-1000000	-1000000	-1000000	
24.98	4.111	4043.8	7.711	350.55	-1000000	-1000000	-1000000	-1000000	
25.00	4.111	4008.2	7.709	350.50	-1000000	-1000000	-1000000	-1000000	
25.02	4.110	3972.8	7.708	350.82	-1000000	-1000000	-1000000	-1000000	
25.04	4.110	3938.1	7.706	350.98	-1000000	-1000000	-1000000	-1000000	
25.06	4.110	3904.3	7.704	351.06	-1000000	-1000000	-1000000	-1000000	
25.08	4.109	3870.7	7.702	350.88	-1000000	-1000000	-1000000	-1000000	
25.10	4.109	3837.2	7.700	350.61	-1000000	-1000000	-1000000	-1000000	
25.12	4.108	3803.6	7.698	350.51	-1000000	-1000000	-1000000	-1000000	
25.14	4.108	3770.0	7.696	350.43	-1000000	-1000000	-1000000	-1000000	
25.16	4.108	3736.4	7.694	350.33	-1000000	-1000000	-1000000	-1000000	
25.18	4.107	3702.7	7.693	350.20	-1000000	-1000000	-1000000	-1000000	
25.20	4.107	3669.1	7.691	350.25	-1000000	-1000000	-1000000	-1000000	
25.22	4.107	3635.7	7.689	350.31	-1000000	-1000000	-1000000	-1000000	
25.24	4.106	3602.3	7.687	350.44	-1000000	-1000000	-1000000	-1000000	
25.26	4.106	3568.8	7.685	350.58	-1000000	-1000000	-1000000	-1000000	
25.28	4.105	3535.2	7.683	350.41	-1000000	-1000000	-1000000	-1000000	
25.30	4.105	3502.0	7.681	350.17	-1000000	-1000000	-1000000	-1000000	
25.32	4.104	3469.1	7.679	350.01	-1000000	-1000000	-1000000	-1000000	
25.34	4.104	3436.1	7.677	349.96	-1000000	-1000000	-1000000	-1000000	
25.36	4.104	3403.0	7.675	350.09	-1000000	-1000000	-1000000	-1000000	
25.38	4.103	3369.5	7.674	349.81	-1000000	-1000000	-1000000	-1000000	
25.40	4.103	3335.9	7.672	349.65	-1000000	-1000000	-1000000	-1000000	
25.42	4.102	3302.3	7.670	349.66	-1000000	-1000000	-1000000	-1000000	
25.44	4.102	3268.7	7.668	349.49	-1000000	-1000000	-1000000	-1000000	
25.46	4.102	3234.7	7.666	349.31	-1000000	-1000000	-1000000	-1000000	
25.48	4.101	3200.4	7.664	349.19	-1000000	-1000000	-1000000	-1000000	
25.50	4.101	3165.8	7.662	349.36	-1000000	-1000000	-1000000	-1000000	
25.52	4.100	3130.7	7.660	349.37	-1000000	-1000000	-1000000	-1000000	
25.54	4.100	3095.5	7.658	349.18	-1000000	-1000000	-1000000	-1000000	
25.56	4.099	3060.2	7.656	349.19	-1000000	-1000000	-1000000	-1000000	
25.58	4.099	3024.6	7.654	349.25	-1000000	-1000000	-1000000	-1000000	
25.60	4.099	2989.0	7.652	349.45	-1000000	-1000000	-1000000	-1000000	
25.62	4.098	2953.3	7.650	349.48	-1000000	-1000000	-1000000	-1000000	
25.64	4.098	2917.4	7.648	349.42	-1000000	-1000000	-1000000	-1000000	
25.66	4.097	2881.0	7.646	349.54	-1000000	-1000000	-1000000	-1000000	
25.68	4.097	2844.0	7.644	349.69	-1000000	-1000000	-1000000	-1000000	
25.70	4.097	2805.9	7.641	349.57	-1000000	-1000000	-1000000	-1000000	
25.72	4.096	2766.6	7.639	349.46	-1000000	-1000000	-1000000	-1000000	
25.74	4.096	2726.7	7.638	349.55	-1000000	-1000000	-1000000	-1000000	
25.76	4.095	2685.8	7.636	349.65	-1000000	-1000000	-1000000	-1000000	
25.78	4.093	2644.7	7.634	349.90	-1000000	-1000000	-1000000	-1000000	
25.80	4.092	2604.1	7.631	350.07	-1000000	-1000000	-1000000	-1000000	
25.82	4.091	2563.9	7.629	350.07	-1000000	-1000000	-1000000	-1000000	
25.84	4.091	2523.9	7.627	350.05	-1000000	-1000000	-1000000	-1000000	
25.86	4.090	2484.6	7.625	350.09	-1000000	-1000000	-1000000	-1000000	
25.88	4.090	2446.0	7.623	350.19	-1000000	-1000000	-1000000	-1000000	
25.90	4.090	2407.7	7.621	350.33	-1000000	-1000000	-1000000	-1000000	
25.92	4.089	2369.3	7.619	350.53	-1000000	-1000000	-1000000	-1000000	
25.94	4.089	2331.3	7.617	350.62	-1000000	-1000000	-1000000	-1000000	
25.96	4.088	2293.8	7.615	350.69	-1000000	-1000000	-1000000	-1000000	
25.98	4.088	2256.9	7.612	351.34	-1000000	-1000000	-1000000	-1000000	
26.00	4.087	2220.7	7.610	351.66	-1000000	-1000000	-1000000	-1000000	
26.02	4.087	2184.5	7.608	351.16	-1000000	-1000000	-1000000	-1000000	
26.04	4.088	2147.7	7.606	350.65	-1000000	-1000000	-1000000	-1000000	
26.06	4.088	2110.8	7.604	350.61	-1000000	-1000000	-1000000	-1000000	
26.08	4.088	2074.0	7.602	350.61	-1000000	-1000000	-1000000	-1000000	
26.10	4.087	2037.0	7.599	350.34	-1000000	-1000000	-1000000	-1000000	
26.12	4.087	1999.5	7.597	350.00	-1000000	-1000000	-1000000	-1000000	
26.14	4.086	1962.0	7.595	349.76	-1000000	-1000000	-1000000	-1000000	
26.16	4.086	1924.7	7.593	349.73	-1000000	-1000000	-1000000	-1000000	
26.18	4.085	1887.2	7.591	349.66	-1000000	-1000000	-1000000	-1000000	
26.20	4.085	1849.3	7.589	349.78	-1000000	-1000000	-1000000	-1000000	
26.22	4.084	1811.3	7.586	349.75	-1000000	-1000000	-1000000	-1000000	
26.24	4.084	1773.3	7.584	349.71	-1000000	-1000000	-1000000	-1000000	
26.26	4.083	1735.4	7.582	349.66	-1000000	-1000000	-1000000	-1000000	
26.28	4.083	1698.1	7.580	349.58	-1000000	-1000000	-1000000	-1000000	
26.30	4.082	1660.4	7.577	349.60	-1000000	-1000000	-1000000	-1000000	
26.32	4.082	1622.5	7.575	349.70	-1000000	-1000000	-1000000	-1000000	
26.34	4.081	1584.0	7.573	349.72	-1000000	-1000000	-1000000	-1000000	
26.36	4.081	1545.1	7.571	349.67	-1000000	-1000000	-1000000	-1000000	
26.38	4.080	1506.0	7.568	349.76	-1000000	-1000000	-1000000	-1000000	
26.40	4.080	1466.6	7.566	349.82	-1000000	-1000000	-1000000	-1000000	
26.42	4.079	1427.4	7.564	349.80	-1000000	-1000000	-1000000	-1000000	
26.44	4.079	1387.6	7.561	349.53	-1000000	-1000000	-1000000	-1000000	
26.46	4.078	1346.7	7.559	349.31	-1000000	-1000000	-1000000	-1000000	
26.48	4.078	1305.2	7.557	349.33	-1000000	-1000000	-1000000	-1000000	
26.50	4.077	1263.6	7.555	349.62	-1000000	-1000000	-1000000	-1000000	
26.52	4.077	1221.8	7.552	349.72	-1000000	-1000000	-1000000	-1000000	
26.54	4.076	1179.3	7.550	349.75	-1000000	-1000000	-1000000	-1000000	
26.56	4.076	1136.0	7.548	349.95	-1000000	-1000000	-1000000	-1000000	
26.58	4.075	1092.3	7.545	350.08	-1000000	-1000000	-1000000	-1000000	
26.60	4.075	1048.5	7.543	350.13	-1000000	-1000000	-1000000	-1000000	
26.62	4.074	1004.8	7.541	350.31	-1000000	-1000000	-1000000	-1000000	
26.64	4.073	961.25	7.538	350.23	-1000000	-1000000	-1000000	-1000000	
26.66	4.073	918.14	7.536	350.10	-1000000	-1000000	-1000000	-1000000	
26.68	4.072	875.65	7.534	350.29	-1000000	-1000000	-1000000	-1000000	
26.70	4.072	833.11	7.531	350.44	-1000000	-1000000	-1000000	-1000000	
26.72	4.071	790.74	7.529	350.73	-1000000	-1000000	-1000000	-1000000	
26.74	4.071	748.78	7.526	350.77	-1000000	-1000000	-1000000	-1000000	
26.76	4.070	706.89	7.524	350.49	-1000000	-1000000	-1000000	-1000000	
26.78	4.069	665.19	7.521	350.48	-1000000	-1000000	-1000000	-1000000	
26.80	4.069	623.50	7.519	350.55	-1000000	-1000000	-1000000	-1000000	
26.82	4.068	582.21	7.517	350.56	-1000000	-1000000	-1000000	-1000000	
26.84	4.068	541.33	7.514	350.42	-1000000	-1000000	-1000000	-1000000	
26.86	4.067	500.44	7.512	350.30	-1000000	-1000000	-1000000	-1000000	
26.88	4.066	459.70	7.509	350.37	-1000000	-1000000	-1000000	-1000000	
26.90	4.066	418.91	7.507	350.53	-1000000	-1000000	-1000000	-1000000	
26.92	4.065	377.81	7.505	350.71	-1000000	-1000000	-1000000	-1000000	
26.94	4.064	336.93	7.502	350.79	-1000000	-1000000	-1000000	-1000000	
26.96	4.064	295.55	7.499	350.53	-1000000	-1000000	-1000000	-1000000	
26.98	4.063	253.74	7.497	350.32	-1000000	-1000000	-1000000	-1000000	
27.00	4.062	211.83	7.495	350.54	-1000000	-1000000	-1000000	-1000000	
27.02	4.062	170.17	7.492	350.67	-1000000	-1000000	-1000000	-1000000	
27.04	4.061	128.54	7.490	350.49	-1000000	-1000000	-1000000	-1000000	
27.06	4.061	86.72	7.487	350.12	-1000000	-1000000	-1000000	-1000000	
27.08	4.060	46.18	7.485	349.86	-1000000	-1000000	-1000000	-1000000	
27.10	4.060	9.672	7.482	349.64	-1000000	-1000000	-1000000	-1000000	
27.12	4.060	-19.50	7.480	349.78	-1000000	-1000000	-1000000	-1000000	
27.14	4.060	-39.86	7.479	349.85	-1000000	-1000000	-1000000	-1000000	
27.16	4.060	-51.43	7.478	349.65	-1000000	-1000000	-1000000	-1000000	
27.18	4.060	-55.50	7.477	349.62	-1000000	-1000000	-1000000	-1000000	
27.20	4.059	-54.45	7.477	349.62	-1000000	-1000000	-1000000	-1000000	
27.22	4.059	-51.71	7.477	349.49	-1000000	-1000000	-1000000	-1000000	
27.24	4.059	-50.34	7.477	349.39	-1000000	-1000000	-1000000	-1000000	
27.26	4.059	-50.05	7.477	349.45	-1000000	-1000000	-1000000	-1000000	
27.28	4.059	-50.10	7.477	349.51	-1000000	-1000000	-1000000	-1000000	
27.30	4.059	-50.05	7.477	349.53	-1000000	-1000000	-1000000	-1000000	
27.32	4.059	-50.04	7.477	349.58	-1000000	-1000000	-1000000	-1000000	
27.34	4.059	-50.10	7.477	349.53	-1000000	-1000000	-1000000	-1000000	
27.36	4.059	-50.03	7.477	349.33	-1000000	-1000000	-1000000	-1000000	
27.38	4.059	-49.97	7.477	349.25	-1000000	-1000000	-1000000	-1000000	
27.40	4.059	-49.90	7.477	349.20	-1000000	-1000000	-1000000	-1000000	
27.42	4.059	-49.93	7.477	349.03	-1000000	-1000000	-1000000	-1000000	
27.44	4.059	-49.98	7.477	348.97	-1000000	-1000000	-1000000	-1000000	
27.46	4.059	-50.13	7.477	349.09	-1000000	-1000000	-1000000	-1000000	
27.48	4.059	-50.19	7.477	349.08	-1000000	-1000000	-1000000	-1000000	
27.50	4.059	-50.10	7.477	348.96	-1000000	-1000000	-1000000	-1000000	
27.52	4.059	-49.99	7.477	348.76	-1000000	-1000000	-1000000	-1000000	
27.54	4.059	-49.86	7.477	348.88	-1000000	-1000000	-1000000	-1000000	
27.56	4.059	-49.90	7.477	349.05	-1000000	-1000000	-1000000	-1000000	
27.58	4.059	-49.97	7.477	349.29	-1000000	-1000000	-1000000	-1000000	
27.60	4.059	-49.97	7.477	349.57	-1000000	-1000000	-1000000	-1000000	
27.62	4.059	-49.88	7.477	349.41	-1000000	-1000000	-1000000	-1000000	
27.64	4.059	-49.93	7.477	349.10	-1000000	-1000000	-1000000	-1000000	
27.66	4.059	-50.07	7.477	349.10	-1000000	-1000000	-1000000	-1000000	
27.68	4.058	-49.91	7.477	349.12	-1000000	-1000000	-1000000	-1000000	
27.70	4.058	-33.80	7.477	349.03	-1000000	-1000000	-1000000	-1000000	
27.72	4.058	6.691	7.477	349.04	-1000000	-1000000	-1000000	-1000000	
27.74	4.058	34.96	7.477	348.62	-1000000	-1000000	-1000000	-1000000	
27.76	4.058	44.80	7.477	348.28	-1000000	-1000000	-1000000	-1000000	
27.78	4.058	47.91	7.477	348.36	-1000000	-1000000	-1000000	-1000000	
27.80	4.058	50.23	7.477	348.49	-1000000	-1000000	-1000000	-1000000	
27.82	4.058	52.91	7.477	348.34	-1000000	-1000000	-1000000	-1000000	
27.84	4.058	55.65	7.477	348.13	-1000000	-1000000	-1000000	-1000000	
27.86	4.058	58.17	7.477	348.12	-1000000	-1000000	-1000000	-1000000	
27.88	4.058	61.16	7.477	348.37	-1000000	-1000000	-1000000	-1000000	
27.90	4.058	63.92	7.477	348.65	-1000000	-1000000	-1000000	-1000000	
27.92	4.058	66.41	7.477	348.66	-1000000	-1000000	-1000000	-1000000	
27.94	4.058	69.25	7.477	348.33	-1000000	-1000000	-1000000	-1000000	
27.96	4.058	71.89	7.477	348.08	-1000000	-1000000	-1000000	-1000000	
27.98	4.058	74.45	7.477	348.13	-1000000	-1000000	-1000000	-1000000	
28.00	4.058	76.96	7.477	348.24	-1000000	-1000000	-1000000	-1000000	
28.02	4.058	79.61	7.477	348.13	-1000000	-1000000	-1000000	-1000000	
28.04	4.058	82.07	7.477	347.96	-1000000	-1000000	-1000000	-1000000	
28.06	4.058	84.62	7.477	347.94	-1000000	-1000000	-1000000	-1000000	
28.08	4.058	87.45	7.477	347.80	-1000000	-1000000	-1000000	-1000000	
28.10	4.058	90.07	7.477	347.62	-1000000	-1000000	-1000000	-1000000	
28.12	4.058	92.62	7.477	347.62	-1000000	-1000000	-1000000	-1000000	
28.14	4.058	95.03	7.477	347.65	-1000000	-1000000	-1000000	-1000000	
28.16	4.058	97.53	7.477	347.70	-1000000	-1000000	-1000000	-1000000	
28.18	4.058	100.03	7.477	347.92	-1000000	-1000000	-1000000	-1000000	
28.20	4.058	102.58	7.477	347.98	-1000000	-1000000	-1000000	-1000000	
28.22	4.058	104.98	7.477	347.80	-1000000	-1000000	-1000000	-1000000	
28.24	4.058	107.26	7.477	347.54	-1000000	-1000000	-1000000	-1000000	
28.26	4.058	109.52	7.477	347.42	-1000000	-1000000	-1000000	-1000000	
28.28	4.058	111.84	7.477	347.42	-1000000	-1000000	-1000000	-1000000	
28.30	4.058	114.09	7.477	347.48	-1000000	-1000000	-1000000	-1000000	
28.32	4.058	116.53	7.477	347.55	-1000000	-1000000	-1000000	-1000000	
28.34	4.058	118.92	7.477	347.56	-1000000	-1000000	-1000000	-1000000	
28.36	4.057	121.27	7.477	347.34	-1000000	-1000000	-1000000	-1000000	
28.38	4.057	123.58	7.477	346.97	-1000000	-1000000	-1000000	-1000000	
28.40	4.057	125.70	7.477	346.76	-1000000	-1000000	-1000000	-1000000	
28.42	4.057	127.92	7.477	346.77	-1000000	-1000000	-1000000	-1000000	
28.44	4.057	130.16	7.477	346.67	-1000000	-1000000	-1000000	-1000000	
28.46	4.057	132.50	7.477	346.87	-1000000	-1000000	-1000000	-1000000	
28.48	4.057	134.77	7.477	346.88	-1000000	-1000000	-1000000	-1000000	
28.50	4.057	136.86	7.477	346.93	-1000000	-1000000	-1000000	-1000000	
28.52	4.057	138.65	7.477	347.01	-1000000	-1000000	-1000000	-1000000	
28.54	4.057	140.59	7.477	346.86	-1000000	-1000000	-1000000	-1000000	
28.56	4.057	142.56	7.477	346.80	-1000000	-1000000	-1000000	-1000000	
28.58	4.057	144.50	7.477	346.91	-1000000	-1000000	-1000000	-1000000	
28.60	4.057	146.54	7.477	347.03	-1000000	-1000000	-1000000	-1000000	
28.62	4.057	148.55	7.477	347.11	-1000000	-1000000	-1000000	-1000000	
28.64	4.057	150.59	7.477	346.91	-1000000	-1000000	-1000000	-1000000	
28.66	4.057	152.79	7.477	346.74	-1000000	-1000000	-1000000	-1000000	
28.68	4.057	154.96	7.477	346.64	-1000000	-1000000	-1000000	-1000000	
28.70	4.057	157.18	7.477	346.42	-1000000	-1000000	-1000000	-1000000	
28.72	4.057	159.54	7.477	346.23	-1000000	-1000000	-1000000	-1000000	
28.74	4.057	161.82	7.477	346.08	-1000000	-1000000	-1000000	-1000000	
28.76	4.057	163.94	7.477	346.00	-1000000	-1000000	-1000000	-1000000	
28.78	4.057	165.97	7.477	345.86	-1000000	-1000000	-1000000	-1000000	
28.80	4.057	167.93	7.477	345.96	-1000000	-1000000	-1000000	-1000000	
28.82	4.057	170.00	7.477	346.14	-1000000	-1000000	-1000000	-1000000	
28.84	4.057	172.18	7.477	346.65	-1000000	-1000000	-1000000	-1000000	
28.86	4.057	174.33	7.477	347.00	-1000000	-1000000	-1000000	-1000000	
28.88	4.057	176.12	7.477	346.57	-1000000	-1000000	-1000000	-1000000	
28.90	4.057	177.90	7.477	346.03	-1000000	-1000000	-1000000	-1000000	
28.92	4.057	180.05	7.477	345.93	-1000000	-1000000	-1000000	-1000000	
28.94	4.057	181.94	7.477	345.93	-1000000	-1000000	-1000000	-1000000	
28.96	4.057	184.04	7.477	345.85	-1000000	-1000000	-1000000	-1000000	
28.98	4.057	186.32	7.477	345.78	-1000000	-1000000	-1000000	-1000000	
29.00	4.057	188.48	7.477	345.66	-1000000	-1000000	-1000000	-1000000	
29.02	4.057	190.35	7.477	345.24	-1000000	-1000000	-1000000	-1000000	
29.04	4.057	192.13	7.477	345.17	-1000000	-1000000	-1000000	-1000000	
29.06	4.057	193.78	7.477	345.12	-1000000	-1000000	-1000000	-1000000	
29.08	4.057	195.78	7.477	344.99	-1000000	-1000000	-1000000	-1000000	
29.10	4.057	197.96	7.477	345.25	-1000000	-1000000	-1000000	-1000000	
29.12	4.057	199.79	7.477	345.40	-1000000	-1000000	-1000000	-1000000	
29.14	4.057	201.56	7.477	345.13	-1000000	-1000000	-1000000	-1000000	
29.16	4.057	203.33	7.477	344.95	-1000000	-1000000	-1000000	-1000000	
29.18	4.057	205.03	7.477	344.94	-1000000	-1000000	-1000000	-1000000	
29.20	4.057	206.97	7.477	344.98	-1000000	-1000000	-1000000	-1000000	
29.22	4.057	208.89	7.477	344.92	-1000000	-1000000	-1000000	-1000000	
29.24	4.057	210.65	7.477	345.02	-1000000	-1000000	-1000000	-1000000	
29.26	4.057	212.34	7.477	344.99	-1000000	-1000000	-1000000	-1000000	
29.28	4.057	213.96	7.477	344.76	-1000000	-1000000	-1000000	-1000000	
29.30	4.057	215.54	7.477	344.72	-1000000	-1000000	-1000000	-1000000	
29.32	4.057	217.28	7.477	344.61	-1000000	-1000000	-1000000	-1000000	
29.34	4.057	219.18	7.477	344.24	-1000000	-1000000	-1000000	-1000000	
29.36	4.057	220.99	7.477	344.28	-1000000	-1000000	-1000000	-1000000	
29.38	4.057	222.43	7.477	344.24	-1000000	-1000000	-1000000	-1000000	
29.40	4.057	224.06	7.477	344.05	-1000000	-1000000	-1000000	-1000000	
29.42	4.057	225.94	7.477	344.13	-1000000	-1000000	-1000000	-1000000	
29.44	4.056	227.54	7.477	344.31	-1000000	-1000000	-1000000	-1000000	
29.46	4.056	229.17	7.477	344.12	-1000000	-1000000	-1000000	-1000000	
29.48	4.056	230.80	7.477	343.88	-1000000	-1000000	-1000000	-1000000	