Zeit  1 - Standardmessrate [s]	Maytec [mm]	Kraft [N]	Standardwegaufnehmer [mm]	Pyrometer [°C]	Drehwinkel [V]	MX840_0_CH 6 [V]	MX840_0_CH 7 [V]	MX840_0_CH 8 [V]
0	-0.03140	131.29	0.7851	300.12	-1000000	-1000000	-1000000	-1000000	
0.02000	-0.03139	131.24	0.7852	300.13	-1000000	-1000000	-1000000	-1000000	
0.04000	-0.03138	131.19	0.7856	300.15	-1000000	-1000000	-1000000	-1000000	
0.06000	-0.03138	131.21	0.7858	300.15	-1000000	-1000000	-1000000	-1000000	
0.08000	-0.03139	131.40	0.7859	300.13	-1000000	-1000000	-1000000	-1000000	
0.1000	-0.03135	131.45	0.7860	300.12	-1000000	-1000000	-1000000	-1000000	
0.1200	-0.03130	131.40	0.7859	300.14	-1000000	-1000000	-1000000	-1000000	
0.1400	-0.03131	131.34	0.7858	300.15	-1000000	-1000000	-1000000	-1000000	
0.1600	-0.03137	131.30	0.7858	300.14	-1000000	-1000000	-1000000	-1000000	
0.1800	-0.03136	131.35	0.7858	300.12	-1000000	-1000000	-1000000	-1000000	
0.2000	-0.03130	131.45	0.7858	300.12	-1000000	-1000000	-1000000	-1000000	
0.2200	-0.03128	131.48	0.7859	300.15	-1000000	-1000000	-1000000	-1000000	
0.2400	-0.03127	131.43	0.7859	300.15	-1000000	-1000000	-1000000	-1000000	
0.2600	-0.03123	131.37	0.7859	300.13	-1000000	-1000000	-1000000	-1000000	
0.2800	-0.03118	131.30	0.7859	300.11	-1000000	-1000000	-1000000	-1000000	
0.3000	-0.03116	131.25	0.7859	300.12	-1000000	-1000000	-1000000	-1000000	
0.3200	-0.03121	131.32	0.7860	300.14	-1000000	-1000000	-1000000	-1000000	
0.3400	-0.03122	131.39	0.7863	300.14	-1000000	-1000000	-1000000	-1000000	
0.3600	-0.03118	131.30	0.7865	300.13	-1000000	-1000000	-1000000	-1000000	
0.3800	-0.03112	130.98	0.7865	300.12	-1000000	-1000000	-1000000	-1000000	
0.4000	-0.03106	130.28	0.7865	300.14	-1000000	-1000000	-1000000	-1000000	
0.4200	-0.03105	130.50	0.7865	300.15	-1000000	-1000000	-1000000	-1000000	
0.4400	-0.03103	131.25	0.7865	300.13	-1000000	-1000000	-1000000	-1000000	
0.4600	-0.03103	131.53	0.7865	300.12	-1000000	-1000000	-1000000	-1000000	
0.4800	-0.03105	131.38	0.7865	300.12	-1000000	-1000000	-1000000	-1000000	
0.5000	-0.03105	131.60	0.7866	300.14	-1000000	-1000000	-1000000	-1000000	
0.5200	-0.03103	131.68	0.7866	300.14	-1000000	-1000000	-1000000	-1000000	
0.5400	-0.03098	131.56	0.7865	300.12	-1000000	-1000000	-1000000	-1000000	
0.5600	-0.03095	131.47	0.7865	300.11	-1000000	-1000000	-1000000	-1000000	
0.5800	-0.03094	131.70	0.7867	300.13	-1000000	-1000000	-1000000	-1000000	
0.6000	-0.03094	132.40	0.7870	300.15	-1000000	-1000000	-1000000	-1000000	
0.6200	-0.03094	132.71	0.7872	300.14	-1000000	-1000000	-1000000	-1000000	
0.6400	-0.03094	132.29	0.7873	300.12	-1000000	-1000000	-1000000	-1000000	
0.6600	-0.03095	131.82	0.7873	300.12	-1000000	-1000000	-1000000	-1000000	
0.6800	-0.03095	131.50	0.7872	300.14	-1000000	-1000000	-1000000	-1000000	
0.7000	-0.03090	131.42	0.7873	300.15	-1000000	-1000000	-1000000	-1000000	
0.7200	-0.03088	131.53	0.7872	300.13	-1000000	-1000000	-1000000	-1000000	
0.7400	-0.03087	131.51	0.7872	300.11	-1000000	-1000000	-1000000	-1000000	
0.7600	-0.03085	131.41	0.7871	300.12	-1000000	-1000000	-1000000	-1000000	
0.7800	-0.03084	131.38	0.7871	300.14	-1000000	-1000000	-1000000	-1000000	
0.8000	-0.03082	131.46	0.7871	300.15	-1000000	-1000000	-1000000	-1000000	
0.8200	-0.03079	131.54	0.7871	300.13	-1000000	-1000000	-1000000	-1000000	
0.8400	-0.03081	131.54	0.7871	300.12	-1000000	-1000000	-1000000	-1000000	
0.8600	-0.03083	131.55	0.7872	300.13	-1000000	-1000000	-1000000	-1000000	
0.8800	-0.03078	131.57	0.7873	300.15	-1000000	-1000000	-1000000	-1000000	
0.9000	-0.03071	131.52	0.7877	300.14	-1000000	-1000000	-1000000	-1000000	
0.9200	-0.03071	131.40	0.7879	300.12	-1000000	-1000000	-1000000	-1000000	
0.9400	-0.03075	131.42	0.7879	300.12	-1000000	-1000000	-1000000	-1000000	
0.9600	-0.03075	131.39	0.7879	300.14	-1000000	-1000000	-1000000	-1000000	
0.9800	-0.03076	131.35	0.7879	300.15	-1000000	-1000000	-1000000	-1000000	
1.000	-0.03074	131.42	0.7879	300.13	-1000000	-1000000	-1000000	-1000000	
1.020	-0.03066	131.38	0.7879	300.12	-1000000	-1000000	-1000000	-1000000	
1.040	-0.03062	131.27	0.7879	300.13	-1000000	-1000000	-1000000	-1000000	
1.060	-0.03060	131.28	0.7879	300.15	-1000000	-1000000	-1000000	-1000000	
1.080	-0.03061	131.43	0.7879	300.15	-1000000	-1000000	-1000000	-1000000	
1.100	-0.03062	131.55	0.7879	300.13	-1000000	-1000000	-1000000	-1000000	
1.120	-0.03062	131.43	0.7879	300.12	-1000000	-1000000	-1000000	-1000000	
1.140	-0.03061	131.36	0.7879	300.14	-1000000	-1000000	-1000000	-1000000	
1.160	-0.03059	131.32	0.7879	300.15	-1000000	-1000000	-1000000	-1000000	
1.180	-0.03060	131.32	0.7879	300.14	-1000000	-1000000	-1000000	-1000000	
1.200	-0.03063	131.28	0.7882	300.12	-1000000	-1000000	-1000000	-1000000	
1.220	-0.03061	131.24	0.7885	300.12	-1000000	-1000000	-1000000	-1000000	
1.240	-0.03056	131.16	0.7886	300.14	-1000000	-1000000	-1000000	-1000000	
1.260	-0.03051	131.20	0.7886	300.15	-1000000	-1000000	-1000000	-1000000	
1.280	-0.03047	131.33	0.7886	300.14	-1000000	-1000000	-1000000	-1000000	
1.300	-0.03049	131.39	0.7885	300.12	-1000000	-1000000	-1000000	-1000000	
1.320	-0.03050	131.36	0.7885	300.12	-1000000	-1000000	-1000000	-1000000	
1.340	-0.03048	131.26	0.7884	300.14	-1000000	-1000000	-1000000	-1000000	
1.360	-0.03046	131.23	0.7884	300.14	-1000000	-1000000	-1000000	-1000000	
1.380	-0.03046	131.45	0.7885	300.12	-1000000	-1000000	-1000000	-1000000	
1.400	-0.03045	131.51	0.7886	300.11	-1000000	-1000000	-1000000	-1000000	
1.420	-0.03043	131.38	0.7885	300.13	-1000000	-1000000	-1000000	-1000000	
1.440	-0.03039	131.20	0.7885	300.15	-1000000	-1000000	-1000000	-1000000	
1.460	-0.03039	131.31	0.7887	300.14	-1000000	-1000000	-1000000	-1000000	
1.480	-0.03042	131.48	0.7891	300.12	-1000000	-1000000	-1000000	-1000000	
1.500	-0.03043	131.40	0.7893	300.12	-1000000	-1000000	-1000000	-1000000	
1.520	-0.03044	131.27	0.7893	300.14	-1000000	-1000000	-1000000	-1000000	
1.540	-0.03040	131.34	0.7893	300.15	-1000000	-1000000	-1000000	-1000000	
1.560	-0.03033	131.48	0.7893	300.13	-1000000	-1000000	-1000000	-1000000	
1.580	-0.03025	131.65	0.7892	300.11	-1000000	-1000000	-1000000	-1000000	
1.600	-0.03022	131.67	0.7892	300.12	-1000000	-1000000	-1000000	-1000000	
1.620	-0.03024	131.48	0.7891	300.14	-1000000	-1000000	-1000000	-1000000	
1.640	-0.03026	131.25	0.7891	300.14	-1000000	-1000000	-1000000	-1000000	
1.660	-0.03025	131.24	0.7892	300.12	-1000000	-1000000	-1000000	-1000000	
1.680	-0.03026	131.45	0.7893	300.12	-1000000	-1000000	-1000000	-1000000	
1.700	-0.03024	131.57	0.7893	300.13	-1000000	-1000000	-1000000	-1000000	
1.720	-0.03022	131.53	0.7893	300.15	-1000000	-1000000	-1000000	-1000000	
1.740	-0.03017	131.57	0.7892	300.14	-1000000	-1000000	-1000000	-1000000	
1.760	-0.03013	131.44	0.7894	300.12	-1000000	-1000000	-1000000	-1000000	
1.780	-0.03012	131.43	0.7897	300.12	-1000000	-1000000	-1000000	-1000000	
1.800	-0.03017	131.57	0.7899	300.14	-1000000	-1000000	-1000000	-1000000	
1.820	-0.03020	131.73	0.7900	300.15	-1000000	-1000000	-1000000	-1000000	
1.840	-0.03020	131.69	0.7900	300.13	-1000000	-1000000	-1000000	-1000000	
1.860	-0.03020	131.53	0.7900	300.12	-1000000	-1000000	-1000000	-1000000	
1.880	-0.03017	131.44	0.7899	300.12	-1000000	-1000000	-1000000	-1000000	
1.900	-0.03014	131.39	0.7899	300.14	-1000000	-1000000	-1000000	-1000000	
1.920	-0.03010	131.49	0.7899	300.14	-1000000	-1000000	-1000000	-1000000	
1.940	-0.03005	131.57	0.7900	300.12	-1000000	-1000000	-1000000	-1000000	
1.960	-0.03002	131.55	0.7900	300.12	-1000000	-1000000	-1000000	-1000000	
1.980	-0.03003	131.69	0.7900	300.13	-1000000	-1000000	-1000000	-1000000	
2.000	-0.03004	131.70	0.7899	300.15	-1000000	-1000000	-1000000	-1000000	
2.020	-0.03004	131.54	0.7899	300.14	-1000000	-1000000	-1000000	-1000000	
2.040	-0.03000	131.41	0.7899	300.12	-1000000	-1000000	-1000000	-1000000	
2.060	-0.02997	131.28	0.7901	300.12	-1000000	-1000000	-1000000	-1000000	
2.080	-0.02995	131.22	0.7905	300.14	-1000000	-1000000	-1000000	-1000000	
2.100	-0.02993	131.35	0.7906	300.15	-1000000	-1000000	-1000000	-1000000	
2.120	-0.02994	131.49	0.7906	300.13	-1000000	-1000000	-1000000	-1000000	
2.140	-0.02994	131.35	0.7906	300.12	-1000000	-1000000	-1000000	-1000000	
2.160	-0.02995	131.29	0.7907	300.14	-1000000	-1000000	-1000000	-1000000	
2.180	-0.02988	131.34	0.7906	300.15	-1000000	-1000000	-1000000	-1000000	
2.200	-0.02982	131.41	0.7906	300.15	-1000000	-1000000	-1000000	-1000000	
2.220	-0.02986	131.30	0.7906	300.13	-1000000	-1000000	-1000000	-1000000	
2.240	-0.02989	131.29	0.7906	300.12	-1000000	-1000000	-1000000	-1000000	
2.260	-0.02987	131.30	0.7906	300.13	-1000000	-1000000	-1000000	-1000000	
2.280	-0.02982	131.23	0.7906	300.15	-1000000	-1000000	-1000000	-1000000	
2.300	-0.02977	131.43	0.7906	300.14	-1000000	-1000000	-1000000	-1000000	
2.320	-0.02982	131.50	0.7906	300.12	-1000000	-1000000	-1000000	-1000000	
2.340	-0.02984	131.55	0.7907	300.13	-1000000	-1000000	-1000000	-1000000	
2.360	-0.02979	131.46	0.7910	300.14	-1000000	-1000000	-1000000	-1000000	
2.380	-0.02976	131.49	0.7912	300.15	-1000000	-1000000	-1000000	-1000000	
2.400	-0.02973	131.47	0.7913	300.13	-1000000	-1000000	-1000000	-1000000	
2.420	-0.02968	131.32	0.7913	300.11	-1000000	-1000000	-1000000	-1000000	
2.440	-0.02972	131.18	0.7913	300.12	-1000000	-1000000	-1000000	-1000000	
2.460	-0.02976	131.18	0.7913	300.14	-1000000	-1000000	-1000000	-1000000	
2.480	-0.02975	131.33	0.7912	300.15	-1000000	-1000000	-1000000	-1000000	
2.500	-0.02971	131.52	0.7912	300.13	-1000000	-1000000	-1000000	-1000000	
2.520	-0.02969	131.55	0.7912	300.12	-1000000	-1000000	-1000000	-1000000	
2.540	-0.02966	131.35	0.7912	300.14	-1000000	-1000000	-1000000	-1000000	
2.560	-0.02962	131.38	0.7913	300.15	-1000000	-1000000	-1000000	-1000000	
2.580	-0.02960	131.48	0.7913	300.14	-1000000	-1000000	-1000000	-1000000	
2.600	-0.02959	131.35	0.7913	300.12	-1000000	-1000000	-1000000	-1000000	
2.620	-0.02960	130.53	0.7913	300.12	-1000000	-1000000	-1000000	-1000000	
2.640	-0.02957	129.48	0.7912	300.14	-1000000	-1000000	-1000000	-1000000	
2.660	-0.02956	128.31	0.7913	300.15	-1000000	-1000000	-1000000	-1000000	
2.680	-0.02957	126.97	0.7917	300.13	-1000000	-1000000	-1000000	-1000000	
2.700	-0.02951	125.77	0.7919	300.11	-1000000	-1000000	-1000000	-1000000	
2.720	-0.02946	124.40	0.7919	300.12	-1000000	-1000000	-1000000	-1000000	
2.740	-0.02945	122.82	0.7919	300.15	-1000000	-1000000	-1000000	-1000000	
2.760	-0.02941	121.03	0.7919	300.15	-1000000	-1000000	-1000000	-1000000	
2.780	-0.02929	118.33	0.7921	300.13	-1000000	-1000000	-1000000	-1000000	
2.800	-0.02914	114.20	0.7924	300.12	-1000000	-1000000	-1000000	-1000000	
2.820	-0.02894	107.46	0.7926	300.13	-1000000	-1000000	-1000000	-1000000	
2.840	-0.02864	96.18	0.7929	300.15	-1000000	-1000000	-1000000	-1000000	
2.860	-0.02816	77.42	0.7932	300.14	-1000000	-1000000	-1000000	-1000000	
2.880	-0.02753	47.70	0.7936	300.12	-1000000	-1000000	-1000000	-1000000	
2.900	-0.02671	7.602	0.7941	300.12	-1000000	-1000000	-1000000	-1000000	
2.920	-0.02565	-38.45	0.7952	300.14	-1000000	-1000000	-1000000	-1000000	
2.940	-0.02455	-84.45	0.7968	300.15	-1000000	-1000000	-1000000	-1000000	
2.960	-0.02346	-124.55	0.7992	300.13	-1000000	-1000000	-1000000	-1000000	
2.980	-0.02232	-153.59	0.8024	300.11	-1000000	-1000000	-1000000	-1000000	
3.000	-0.02115	-169.95	0.8063	300.13	-1000000	-1000000	-1000000	-1000000	
3.020	-0.02002	-176.14	0.8105	300.14	-1000000	-1000000	-1000000	-1000000	
3.040	-0.01884	-177.54	0.8147	300.14	-1000000	-1000000	-1000000	-1000000	
3.060	-0.01766	-177.28	0.8189	300.12	-1000000	-1000000	-1000000	-1000000	
3.080	-0.01648	-176.46	0.8233	300.11	-1000000	-1000000	-1000000	-1000000	
3.100	-0.01531	-176.24	0.8275	300.13	-1000000	-1000000	-1000000	-1000000	
3.120	-0.01412	-176.67	0.8318	300.15	-1000000	-1000000	-1000000	-1000000	
3.140	-0.01295	-177.21	0.8362	300.14	-1000000	-1000000	-1000000	-1000000	
3.160	-0.01179	-177.99	0.8405	300.12	-1000000	-1000000	-1000000	-1000000	
3.180	-0.01065	-179.03	0.8447	300.13	-1000000	-1000000	-1000000	-1000000	
3.200	-0.00944	-180.27	0.8490	300.14	-1000000	-1000000	-1000000	-1000000	
3.220	-0.00820	-181.41	0.8532	300.15	-1000000	-1000000	-1000000	-1000000	
3.240	-0.00701	-182.16	0.8576	300.13	-1000000	-1000000	-1000000	-1000000	
3.260	-0.00584	-182.50	0.8619	300.12	-1000000	-1000000	-1000000	-1000000	
3.280	-0.00469	-182.78	0.8663	300.13	-1000000	-1000000	-1000000	-1000000	
3.300	-0.00352	-183.43	0.8708	300.15	-1000000	-1000000	-1000000	-1000000	
3.320	-0.00235	-184.36	0.8752	300.15	-1000000	-1000000	-1000000	-1000000	
3.340	-0.00112	-186.11	0.8796	300.13	-1000000	-1000000	-1000000	-1000000	
3.360	0.00012	-188.60	0.8840	300.12	-1000000	-1000000	-1000000	-1000000	
3.380	0.00131	-190.67	0.8884	300.13	-1000000	-1000000	-1000000	-1000000	
3.400	0.00253	-191.90	0.8928	300.15	-1000000	-1000000	-1000000	-1000000	
3.420	0.00381	-192.40	0.8973	300.14	-1000000	-1000000	-1000000	-1000000	
3.440	0.00500	-192.36	0.9018	300.12	-1000000	-1000000	-1000000	-1000000	
3.460	0.00615	-191.67	0.9062	300.12	-1000000	-1000000	-1000000	-1000000	
3.480	0.00735	-191.18	0.9106	300.14	-1000000	-1000000	-1000000	-1000000	
3.500	0.00855	-191.53	0.9151	300.15	-1000000	-1000000	-1000000	-1000000	
3.520	0.00977	-192.36	0.9195	300.13	-1000000	-1000000	-1000000	-1000000	
3.540	0.01098	-192.95	0.9240	300.12	-1000000	-1000000	-1000000	-1000000	
3.560	0.01225	-193.03	0.9285	300.13	-1000000	-1000000	-1000000	-1000000	
3.580	0.01352	-192.78	0.9331	300.15	-1000000	-1000000	-1000000	-1000000	
3.600	0.01472	-192.76	0.9377	300.15	-1000000	-1000000	-1000000	-1000000	
3.620	0.01587	-193.37	0.9423	300.13	-1000000	-1000000	-1000000	-1000000	
3.640	0.01706	-194.79	0.9468	300.12	-1000000	-1000000	-1000000	-1000000	
3.660	0.01831	-196.47	0.9512	300.14	-1000000	-1000000	-1000000	-1000000	
3.680	0.01952	-197.97	0.9557	300.15	-1000000	-1000000	-1000000	-1000000	
3.700	0.02073	-198.85	0.9601	300.14	-1000000	-1000000	-1000000	-1000000	
3.720	0.02198	-199.22	0.9647	300.12	-1000000	-1000000	-1000000	-1000000	
3.740	0.02327	-199.38	0.9694	300.12	-1000000	-1000000	-1000000	-1000000	
3.760	0.02457	-198.87	0.9740	300.14	-1000000	-1000000	-1000000	-1000000	
3.780	0.02585	-198.02	0.9786	300.15	-1000000	-1000000	-1000000	-1000000	
3.800	0.02704	-197.58	0.9832	300.13	-1000000	-1000000	-1000000	-1000000	
3.820	0.02824	-197.45	0.9877	300.11	-1000000	-1000000	-1000000	-1000000	
3.840	0.02946	-197.53	0.9923	300.12	-1000000	-1000000	-1000000	-1000000	
3.860	0.03067	-197.64	0.9970	300.15	-1000000	-1000000	-1000000	-1000000	
3.880	0.03187	-197.66	1.002	300.15	-1000000	-1000000	-1000000	-1000000	
3.900	0.03312	-197.94	1.006	300.12	-1000000	-1000000	-1000000	-1000000	
3.920	0.03439	-198.76	1.011	300.12	-1000000	-1000000	-1000000	-1000000	
3.940	0.03569	-199.86	1.015	300.14	-1000000	-1000000	-1000000	-1000000	
3.960	0.03693	-201.18	1.020	300.15	-1000000	-1000000	-1000000	-1000000	
3.980	0.03815	-202.18	1.024	300.14	-1000000	-1000000	-1000000	-1000000	
4.000	0.03941	-202.63	1.029	300.12	-1000000	-1000000	-1000000	-1000000	
4.020	0.04068	-202.14	1.033	300.12	-1000000	-1000000	-1000000	-1000000	
4.040	0.04187	-201.28	1.038	300.14	-1000000	-1000000	-1000000	-1000000	
4.060	0.04311	-200.88	1.043	300.15	-1000000	-1000000	-1000000	-1000000	
4.080	0.04441	-201.01	1.047	300.13	-1000000	-1000000	-1000000	-1000000	
4.100	0.04571	-201.12	1.052	300.12	-1000000	-1000000	-1000000	-1000000	
4.120	0.04699	-200.94	1.057	300.13	-1000000	-1000000	-1000000	-1000000	
4.140	0.04824	-200.69	1.061	300.15	-1000000	-1000000	-1000000	-1000000	
4.160	0.04946	-200.31	1.066	300.15	-1000000	-1000000	-1000000	-1000000	
4.180	0.05064	-199.84	1.071	300.45	-1000000	-1000000	-1000000	-1000000	
4.200	0.05183	-199.48	1.075	302.49	-1000000	-1000000	-1000000	-1000000	
4.220	0.05304	-199.34	1.080	306.00	-1000000	-1000000	-1000000	-1000000	
4.240	0.05428	-199.77	1.084	309.35	-1000000	-1000000	-1000000	-1000000	
4.260	0.05555	-200.54	1.089	312.70	-1000000	-1000000	-1000000	-1000000	
4.280	0.05680	-201.07	1.094	316.18	-1000000	-1000000	-1000000	-1000000	
4.300	0.05803	-200.42	1.098	318.80	-1000000	-1000000	-1000000	-1000000	
4.320	0.05912	-196.44	1.103	320.70	-1000000	-1000000	-1000000	-1000000	
4.340	0.06003	-183.78	1.107	322.24	-1000000	-1000000	-1000000	-1000000	
4.360	0.06080	-156.69	1.112	323.59	-1000000	-1000000	-1000000	-1000000	
4.380	0.06135	-114.61	1.117	324.77	-1000000	-1000000	-1000000	-1000000	
4.400	0.06163	-60.97	1.121	325.61	-1000000	-1000000	-1000000	-1000000	
4.420	0.06173	-2.618	1.125	326.04	-1000000	-1000000	-1000000	-1000000	
4.440	0.06180	51.61	1.127	326.08	-1000000	-1000000	-1000000	-1000000	
4.460	0.06188	93.38	1.129	326.08	-1000000	-1000000	-1000000	-1000000	
4.480	0.06190	120.21	1.130	326.72	-1000000	-1000000	-1000000	-1000000	
4.500	0.06187	134.61	1.130	327.67	-1000000	-1000000	-1000000	-1000000	
4.520	0.06184	140.81	1.130	327.22	-1000000	-1000000	-1000000	-1000000	
4.540	0.06184	142.88	1.130	326.43	-1000000	-1000000	-1000000	-1000000	
4.560	0.06185	143.10	1.130	326.17	-1000000	-1000000	-1000000	-1000000	
4.580	0.06189	143.44	1.130	326.06	-1000000	-1000000	-1000000	-1000000	
4.600	0.06192	144.20	1.130	325.67	-1000000	-1000000	-1000000	-1000000	
4.620	0.06192	144.73	1.130	325.22	-1000000	-1000000	-1000000	-1000000	
4.640	0.06192	144.76	1.130	325.17	-1000000	-1000000	-1000000	-1000000	
4.660	0.06195	144.66	1.130	324.78	-1000000	-1000000	-1000000	-1000000	
4.680	0.06196	144.72	1.129	324.18	-1000000	-1000000	-1000000	-1000000	
4.700	0.06192	145.25	1.129	323.79	-1000000	-1000000	-1000000	-1000000	
4.720	0.06187	146.21	1.129	323.45	-1000000	-1000000	-1000000	-1000000	
4.740	0.06183	146.89	1.129	323.15	-1000000	-1000000	-1000000	-1000000	
4.760	0.06185	147.55	1.129	322.92	-1000000	-1000000	-1000000	-1000000	
4.780	0.06191	147.93	1.129	322.66	-1000000	-1000000	-1000000	-1000000	
4.800	0.06191	148.10	1.128	322.59	-1000000	-1000000	-1000000	-1000000	
4.820	0.06185	148.21	1.128	322.69	-1000000	-1000000	-1000000	-1000000	
4.840	0.06179	148.31	1.128	323.00	-1000000	-1000000	-1000000	-1000000	
4.860	0.06174	148.40	1.128	323.04	-1000000	-1000000	-1000000	-1000000	
4.880	0.06171	148.44	1.128	323.14	-1000000	-1000000	-1000000	-1000000	
4.900	0.06172	148.35	1.128	322.89	-1000000	-1000000	-1000000	-1000000	
4.920	0.06169	147.62	1.128	322.53	-1000000	-1000000	-1000000	-1000000	
4.940	0.06168	146.91	1.127	322.57	-1000000	-1000000	-1000000	-1000000	
4.960	0.06169	146.54	1.127	322.48	-1000000	-1000000	-1000000	-1000000	
4.980	0.06165	145.60	1.127	322.27	-1000000	-1000000	-1000000	-1000000	
5.000	0.06162	145.02	1.127	322.53	-1000000	-1000000	-1000000	-1000000	
5.020	0.06158	144.95	1.127	322.54	-1000000	-1000000	-1000000	-1000000	
5.040	0.06152	144.75	1.126	321.94	-1000000	-1000000	-1000000	-1000000	
5.060	0.06148	143.95	1.126	321.24	-1000000	-1000000	-1000000	-1000000	
5.080	0.06144	143.25	1.126	321.22	-1000000	-1000000	-1000000	-1000000	
5.100	0.06145	142.95	1.126	321.61	-1000000	-1000000	-1000000	-1000000	
5.120	0.06146	142.70	1.126	321.49	-1000000	-1000000	-1000000	-1000000	
5.140	0.06145	141.99	1.126	321.14	-1000000	-1000000	-1000000	-1000000	
5.160	0.06145	141.38	1.126	321.47	-1000000	-1000000	-1000000	-1000000	
5.180	0.06142	140.41	1.126	321.65	-1000000	-1000000	-1000000	-1000000	
5.200	0.06140	138.93	1.126	321.86	-1000000	-1000000	-1000000	-1000000	
5.220	0.06140	137.36	1.126	322.39	-1000000	-1000000	-1000000	-1000000	
5.240	0.06140	134.97	1.126	322.51	-1000000	-1000000	-1000000	-1000000	
5.260	0.06137	131.90	1.126	322.36	-1000000	-1000000	-1000000	-1000000	
5.280	0.06142	127.78	1.126	322.93	-1000000	-1000000	-1000000	-1000000	
5.300	0.06153	120.56	1.126	323.39	-1000000	-1000000	-1000000	-1000000	
5.320	0.06166	108.51	1.126	323.87	-1000000	-1000000	-1000000	-1000000	
5.340	0.06181	89.90	1.126	324.98	-1000000	-1000000	-1000000	-1000000	
5.360	0.06204	64.22	1.126	325.96	-1000000	-1000000	-1000000	-1000000	
5.380	0.06232	35.05	1.126	326.68	-1000000	-1000000	-1000000	-1000000	
5.400	0.06265	9.412	1.127	327.78	-1000000	-1000000	-1000000	-1000000	
5.420	0.06312	-3.335	1.128	328.25	-1000000	-1000000	-1000000	-1000000	
5.440	0.06352	1.372	1.130	328.50	-1000000	-1000000	-1000000	-1000000	
5.460	0.06372	22.00	1.132	328.69	-1000000	-1000000	-1000000	-1000000	
5.480	0.06380	53.73	1.135	329.10	-1000000	-1000000	-1000000	-1000000	
5.500	0.06384	88.16	1.136	329.41	-1000000	-1000000	-1000000	-1000000	
5.520	0.06385	117.12	1.137	329.74	-1000000	-1000000	-1000000	-1000000	
5.540	0.06384	136.43	1.138	329.96	-1000000	-1000000	-1000000	-1000000	
5.560	0.06381	146.59	1.138	330.12	-1000000	-1000000	-1000000	-1000000	
5.580	0.06381	150.61	1.138	330.10	-1000000	-1000000	-1000000	-1000000	
5.600	0.06386	152.11	1.138	329.92	-1000000	-1000000	-1000000	-1000000	
5.620	0.06389	152.72	1.138	329.77	-1000000	-1000000	-1000000	-1000000	
5.640	0.06387	152.86	1.137	329.66	-1000000	-1000000	-1000000	-1000000	
5.660	0.06382	153.07	1.137	329.60	-1000000	-1000000	-1000000	-1000000	
5.680	0.06375	153.18	1.137	329.55	-1000000	-1000000	-1000000	-1000000	
5.700	0.06366	153.35	1.137	329.12	-1000000	-1000000	-1000000	-1000000	
5.720	0.06362	153.37	1.137	328.92	-1000000	-1000000	-1000000	-1000000	
5.740	0.06361	153.26	1.136	329.22	-1000000	-1000000	-1000000	-1000000	
5.760	0.06362	152.62	1.136	329.48	-1000000	-1000000	-1000000	-1000000	
5.780	0.06362	151.86	1.136	329.47	-1000000	-1000000	-1000000	-1000000	
5.800	0.06362	151.37	1.136	329.85	-1000000	-1000000	-1000000	-1000000	
5.820	0.06361	150.53	1.135	330.22	-1000000	-1000000	-1000000	-1000000	
5.840	0.06360	149.49	1.135	330.09	-1000000	-1000000	-1000000	-1000000	
5.860	0.06360	148.14	1.135	329.90	-1000000	-1000000	-1000000	-1000000	
5.880	0.06358	146.73	1.135	329.80	-1000000	-1000000	-1000000	-1000000	
5.900	0.06351	145.47	1.135	329.55	-1000000	-1000000	-1000000	-1000000	
5.920	0.06348	144.04	1.134	329.61	-1000000	-1000000	-1000000	-1000000	
5.940	0.06349	141.97	1.134	329.75	-1000000	-1000000	-1000000	-1000000	
5.960	0.06356	139.69	1.134	329.88	-1000000	-1000000	-1000000	-1000000	
5.980	0.06359	136.84	1.134	330.14	-1000000	-1000000	-1000000	-1000000	
6.000	0.06359	133.06	1.134	329.94	-1000000	-1000000	-1000000	-1000000	
6.020	0.06357	128.10	1.134	329.82	-1000000	-1000000	-1000000	-1000000	
6.040	0.06360	120.22	1.134	330.01	-1000000	-1000000	-1000000	-1000000	
6.060	0.06371	107.40	1.134	330.51	-1000000	-1000000	-1000000	-1000000	
6.080	0.06388	88.04	1.134	331.46	-1000000	-1000000	-1000000	-1000000	
6.100	0.06406	62.08	1.134	332.71	-1000000	-1000000	-1000000	-1000000	
6.120	0.06436	34.23	1.135	333.69	-1000000	-1000000	-1000000	-1000000	
6.140	0.06475	11.03	1.136	334.47	-1000000	-1000000	-1000000	-1000000	
6.160	0.06518	-0.6305	1.137	335.11	-1000000	-1000000	-1000000	-1000000	
6.180	0.06553	3.677	1.139	335.69	-1000000	-1000000	-1000000	-1000000	
6.200	0.06573	22.93	1.141	336.00	-1000000	-1000000	-1000000	-1000000	
6.220	0.06584	52.05	1.143	336.46	-1000000	-1000000	-1000000	-1000000	
6.240	0.06584	83.40	1.144	336.93	-1000000	-1000000	-1000000	-1000000	
6.260	0.06584	109.47	1.145	337.08	-1000000	-1000000	-1000000	-1000000	
6.280	0.06592	127.18	1.146	337.01	-1000000	-1000000	-1000000	-1000000	
6.300	0.06596	137.72	1.146	337.08	-1000000	-1000000	-1000000	-1000000	
6.320	0.06598	143.19	1.146	337.04	-1000000	-1000000	-1000000	-1000000	
6.340	0.06597	145.70	1.146	336.74	-1000000	-1000000	-1000000	-1000000	
6.360	0.06596	146.53	1.146	336.47	-1000000	-1000000	-1000000	-1000000	
6.380	0.06600	146.85	1.146	336.55	-1000000	-1000000	-1000000	-1000000	
6.400	0.06599	147.53	1.145	336.74	-1000000	-1000000	-1000000	-1000000	
6.420	0.06593	148.14	1.145	336.89	-1000000	-1000000	-1000000	-1000000	
6.440	0.06590	148.55	1.145	336.91	-1000000	-1000000	-1000000	-1000000	
6.460	0.06588	149.19	1.145	337.08	-1000000	-1000000	-1000000	-1000000	
6.480	0.06590	149.72	1.145	337.13	-1000000	-1000000	-1000000	-1000000	
6.500	0.06591	149.97	1.145	337.08	-1000000	-1000000	-1000000	-1000000	
6.520	0.06591	149.96	1.145	337.25	-1000000	-1000000	-1000000	-1000000	
6.540	0.06585	150.03	1.144	337.28	-1000000	-1000000	-1000000	-1000000	
6.560	0.06578	150.15	1.144	337.18	-1000000	-1000000	-1000000	-1000000	
6.580	0.06576	149.95	1.144	337.25	-1000000	-1000000	-1000000	-1000000	
6.600	0.06578	149.04	1.144	337.08	-1000000	-1000000	-1000000	-1000000	
6.620	0.06581	147.85	1.144	336.94	-1000000	-1000000	-1000000	-1000000	
6.640	0.06583	146.22	1.143	337.09	-1000000	-1000000	-1000000	-1000000	
6.660	0.06584	144.22	1.143	337.08	-1000000	-1000000	-1000000	-1000000	
6.680	0.06584	141.73	1.143	337.08	-1000000	-1000000	-1000000	-1000000	
6.700	0.06584	137.92	1.143	337.33	-1000000	-1000000	-1000000	-1000000	
6.720	0.06589	132.07	1.143	337.69	-1000000	-1000000	-1000000	-1000000	
6.740	0.06597	123.37	1.143	338.06	-1000000	-1000000	-1000000	-1000000	
6.760	0.06605	110.36	1.143	338.41	-1000000	-1000000	-1000000	-1000000	
6.780	0.06613	93.21	1.143	338.92	-1000000	-1000000	-1000000	-1000000	
6.800	0.06621	73.72	1.143	339.58	-1000000	-1000000	-1000000	-1000000	
6.820	0.06633	54.96	1.143	340.01	-1000000	-1000000	-1000000	-1000000	
6.840	0.06656	40.77	1.144	340.59	-1000000	-1000000	-1000000	-1000000	
6.860	0.06678	35.25	1.145	341.24	-1000000	-1000000	-1000000	-1000000	
6.880	0.06697	40.66	1.146	341.63	-1000000	-1000000	-1000000	-1000000	
6.900	0.06712	54.90	1.148	341.96	-1000000	-1000000	-1000000	-1000000	
6.920	0.06726	74.58	1.149	342.09	-1000000	-1000000	-1000000	-1000000	
6.940	0.06731	95.04	1.150	341.96	-1000000	-1000000	-1000000	-1000000	
6.960	0.06738	112.29	1.151	341.92	-1000000	-1000000	-1000000	-1000000	
6.980	0.06746	124.71	1.151	342.38	-1000000	-1000000	-1000000	-1000000	
7.000	0.06750	132.48	1.151	342.77	-1000000	-1000000	-1000000	-1000000	
7.020	0.06748	136.37	1.151	342.69	-1000000	-1000000	-1000000	-1000000	
7.040	0.06743	137.78	1.151	342.58	-1000000	-1000000	-1000000	-1000000	
7.060	0.06740	138.12	1.151	342.39	-1000000	-1000000	-1000000	-1000000	
7.080	0.06737	138.19	1.151	342.31	-1000000	-1000000	-1000000	-1000000	
7.100	0.06739	138.15	1.151	342.42	-1000000	-1000000	-1000000	-1000000	
7.120	0.06742	138.16	1.151	342.43	-1000000	-1000000	-1000000	-1000000	
7.140	0.06743	138.10	1.151	342.54	-1000000	-1000000	-1000000	-1000000	
7.160	0.06746	137.24	1.151	342.82	-1000000	-1000000	-1000000	-1000000	
7.180	0.06743	135.88	1.151	343.08	-1000000	-1000000	-1000000	-1000000	
7.200	0.06740	133.77	1.151	343.47	-1000000	-1000000	-1000000	-1000000	
7.220	0.06742	130.52	1.151	343.70	-1000000	-1000000	-1000000	-1000000	
7.240	0.06743	125.50	1.151	344.09	-1000000	-1000000	-1000000	-1000000	
7.260	0.06752	118.28	1.151	344.32	-1000000	-1000000	-1000000	-1000000	
7.280	0.06761	109.46	1.151	344.44	-1000000	-1000000	-1000000	-1000000	
7.300	0.06765	100.41	1.151	344.71	-1000000	-1000000	-1000000	-1000000	
7.320	0.06777	93.53	1.152	344.79	-1000000	-1000000	-1000000	-1000000	
7.340	0.06791	90.31	1.152	344.73	-1000000	-1000000	-1000000	-1000000	
7.360	0.06803	91.01	1.152	345.05	-1000000	-1000000	-1000000	-1000000	
7.380	0.06812	95.77	1.153	345.30	-1000000	-1000000	-1000000	-1000000	
7.400	0.06820	103.03	1.154	345.42	-1000000	-1000000	-1000000	-1000000	
7.420	0.06822	110.39	1.155	345.57	-1000000	-1000000	-1000000	-1000000	
7.440	0.06819	116.01	1.155	345.70	-1000000	-1000000	-1000000	-1000000	
7.460	0.06823	119.14	1.156	345.99	-1000000	-1000000	-1000000	-1000000	
7.480	0.06833	120.17	1.155	346.38	-1000000	-1000000	-1000000	-1000000	
7.500	0.06843	119.74	1.155	346.52	-1000000	-1000000	-1000000	-1000000	
7.520	0.06848	118.71	1.155	346.76	-1000000	-1000000	-1000000	-1000000	
7.540	0.06846	117.69	1.155	346.93	-1000000	-1000000	-1000000	-1000000	
7.560	0.06852	116.60	1.156	347.19	-1000000	-1000000	-1000000	-1000000	
7.580	0.06863	115.46	1.156	347.39	-1000000	-1000000	-1000000	-1000000	
7.600	0.06867	114.22	1.157	347.60	-1000000	-1000000	-1000000	-1000000	
7.620	0.06869	113.18	1.157	347.77	-1000000	-1000000	-1000000	-1000000	
7.640	0.06867	112.83	1.157	347.91	-1000000	-1000000	-1000000	-1000000	
7.660	0.06877	113.16	1.157	348.09	-1000000	-1000000	-1000000	-1000000	
7.680	0.06894	114.07	1.157	348.19	-1000000	-1000000	-1000000	-1000000	
7.700	0.06900	115.24	1.157	348.15	-1000000	-1000000	-1000000	-1000000	
7.720	0.06901	116.49	1.157	348.13	-1000000	-1000000	-1000000	-1000000	
7.740	0.06904	117.44	1.157	348.40	-1000000	-1000000	-1000000	-1000000	
7.760	0.06909	117.89	1.157	348.44	-1000000	-1000000	-1000000	-1000000	
7.780	0.06913	117.89	1.157	348.46	-1000000	-1000000	-1000000	-1000000	
7.800	0.06915	117.10	1.157	348.56	-1000000	-1000000	-1000000	-1000000	
7.820	0.06921	116.18	1.157	348.83	-1000000	-1000000	-1000000	-1000000	
7.840	0.06932	115.18	1.157	349.15	-1000000	-1000000	-1000000	-1000000	
7.860	0.06936	114.12	1.158	349.38	-1000000	-1000000	-1000000	-1000000	
7.880	0.06938	113.27	1.158	349.71	-1000000	-1000000	-1000000	-1000000	
7.900	0.06943	112.74	1.158	350.16	-1000000	-1000000	-1000000	-1000000	
7.920	0.06952	111.97	1.158	350.31	-1000000	-1000000	-1000000	-1000000	
7.940	0.06958	112.02	1.159	350.50	-1000000	-1000000	-1000000	-1000000	
7.960	0.06965	112.91	1.159	350.76	-1000000	-1000000	-1000000	-1000000	
7.980	0.06974	114.61	1.159	351.01	-1000000	-1000000	-1000000	-1000000	
8.000	0.06983	117.44	1.160	351.04	-1000000	-1000000	-1000000	-1000000	
8.020	0.06988	120.80	1.161	350.90	-1000000	-1000000	-1000000	-1000000	
8.040	0.06986	124.07	1.161	350.69	-1000000	-1000000	-1000000	-1000000	
8.060	0.06984	127.22	1.161	350.80	-1000000	-1000000	-1000000	-1000000	
8.080	0.06983	130.51	1.160	351.25	-1000000	-1000000	-1000000	-1000000	
8.100	0.06985	133.15	1.160	351.39	-1000000	-1000000	-1000000	-1000000	
8.120	0.06985	135.50	1.160	351.31	-1000000	-1000000	-1000000	-1000000	
8.140	0.06989	137.44	1.161	351.27	-1000000	-1000000	-1000000	-1000000	
8.160	0.06995	138.85	1.161	351.31	-1000000	-1000000	-1000000	-1000000	
8.180	0.06997	140.00	1.162	351.27	-1000000	-1000000	-1000000	-1000000	
8.200	0.06990	141.08	1.161	351.28	-1000000	-1000000	-1000000	-1000000	
8.220	0.06985	142.16	1.160	351.44	-1000000	-1000000	-1000000	-1000000	
8.240	0.06986	143.38	1.160	351.53	-1000000	-1000000	-1000000	-1000000	
8.260	0.06987	144.33	1.160	351.33	-1000000	-1000000	-1000000	-1000000	
8.280	0.06986	144.98	1.160	351.30	-1000000	-1000000	-1000000	-1000000	
8.300	0.06984	145.78	1.160	351.18	-1000000	-1000000	-1000000	-1000000	
8.320	0.06983	146.59	1.161	350.92	-1000000	-1000000	-1000000	-1000000	
8.340	0.06987	147.47	1.161	350.86	-1000000	-1000000	-1000000	-1000000	
8.360	0.06989	147.91	1.161	351.11	-1000000	-1000000	-1000000	-1000000	
8.380	0.06987	148.46	1.160	351.23	-1000000	-1000000	-1000000	-1000000	
8.400	0.06980	149.40	1.160	351.25	-1000000	-1000000	-1000000	-1000000	
8.420	0.06973	149.88	1.159	351.13	-1000000	-1000000	-1000000	-1000000	
8.440	0.06971	150.02	1.159	351.12	-1000000	-1000000	-1000000	-1000000	
8.460	0.06973	149.86	1.159	351.22	-1000000	-1000000	-1000000	-1000000	
8.480	0.06976	149.65	1.158	351.41	-1000000	-1000000	-1000000	-1000000	
8.500	0.06977	149.68	1.158	351.58	-1000000	-1000000	-1000000	-1000000	
8.520	0.06976	149.75	1.158	351.60	-1000000	-1000000	-1000000	-1000000	
8.540	0.06971	149.81	1.158	351.46	-1000000	-1000000	-1000000	-1000000	
8.560	0.06967	149.58	1.158	351.34	-1000000	-1000000	-1000000	-1000000	
8.580	0.06966	148.93	1.158	351.37	-1000000	-1000000	-1000000	-1000000	
8.600	0.06965	148.30	1.157	351.47	-1000000	-1000000	-1000000	-1000000	
8.620	0.06965	147.60	1.157	351.52	-1000000	-1000000	-1000000	-1000000	
8.640	0.06965	146.88	1.157	351.30	-1000000	-1000000	-1000000	-1000000	
8.660	0.06960	146.04	1.157	350.93	-1000000	-1000000	-1000000	-1000000	
8.680	0.06961	145.09	1.157	350.76	-1000000	-1000000	-1000000	-1000000	
8.700	0.06967	144.45	1.157	350.94	-1000000	-1000000	-1000000	-1000000	
8.720	0.06964	143.76	1.157	351.05	-1000000	-1000000	-1000000	-1000000	
8.740	0.06959	143.29	1.157	350.95	-1000000	-1000000	-1000000	-1000000	
8.760	0.06951	143.08	1.157	350.91	-1000000	-1000000	-1000000	-1000000	
8.780	0.06947	143.02	1.157	351.12	-1000000	-1000000	-1000000	-1000000	
8.800	0.06948	143.06	1.157	351.23	-1000000	-1000000	-1000000	-1000000	
8.820	0.06949	143.13	1.157	351.27	-1000000	-1000000	-1000000	-1000000	
8.840	0.06947	142.73	1.157	351.30	-1000000	-1000000	-1000000	-1000000	
8.860	0.06948	141.86	1.157	351.29	-1000000	-1000000	-1000000	-1000000	
8.880	0.06947	141.46	1.157	351.25	-1000000	-1000000	-1000000	-1000000	
8.900	0.06945	141.45	1.157	351.21	-1000000	-1000000	-1000000	-1000000	
8.920	0.06947	141.73	1.157	351.15	-1000000	-1000000	-1000000	-1000000	
8.940	0.06943	141.84	1.156	351.38	-1000000	-1000000	-1000000	-1000000	
8.960	0.06941	141.79	1.156	351.38	-1000000	-1000000	-1000000	-1000000	
8.980	0.06940	141.68	1.156	351.38	-1000000	-1000000	-1000000	-1000000	
9.000	0.06940	141.62	1.155	351.28	-1000000	-1000000	-1000000	-1000000	
9.020	0.06942	141.44	1.155	350.94	-1000000	-1000000	-1000000	-1000000	
9.040	0.06941	141.32	1.155	350.70	-1000000	-1000000	-1000000	-1000000	
9.060	0.06933	141.42	1.156	350.55	-1000000	-1000000	-1000000	-1000000	
9.080	0.06929	141.58	1.156	350.59	-1000000	-1000000	-1000000	-1000000	
9.100	0.06934	141.56	1.156	350.79	-1000000	-1000000	-1000000	-1000000	
9.120	0.06932	141.54	1.156	351.09	-1000000	-1000000	-1000000	-1000000	
9.140	0.06926	141.56	1.156	351.18	-1000000	-1000000	-1000000	-1000000	
9.160	0.06923	141.55	1.155	351.10	-1000000	-1000000	-1000000	-1000000	
9.180	0.06925	141.51	1.154	351.04	-1000000	-1000000	-1000000	-1000000	
9.200	0.06928	141.45	1.154	351.19	-1000000	-1000000	-1000000	-1000000	
9.220	0.06926	141.43	1.154	351.42	-1000000	-1000000	-1000000	-1000000	
9.240	0.06921	141.62	1.155	351.30	-1000000	-1000000	-1000000	-1000000	
9.260	0.06916	141.69	1.155	351.18	-1000000	-1000000	-1000000	-1000000	
9.280	0.06912	141.67	1.155	351.24	-1000000	-1000000	-1000000	-1000000	
9.300	0.06910	141.61	1.154	351.29	-1000000	-1000000	-1000000	-1000000	
9.320	0.06909	141.51	1.153	351.32	-1000000	-1000000	-1000000	-1000000	
9.340	0.06910	141.39	1.154	351.15	-1000000	-1000000	-1000000	-1000000	
9.360	0.06904	141.32	1.154	350.72	-1000000	-1000000	-1000000	-1000000	
9.380	0.06900	141.42	1.155	350.58	-1000000	-1000000	-1000000	-1000000	
9.400	0.06902	141.43	1.154	350.62	-1000000	-1000000	-1000000	-1000000	
9.420	0.06904	141.43	1.154	350.62	-1000000	-1000000	-1000000	-1000000	
9.440	0.06901	141.51	1.153	350.58	-1000000	-1000000	-1000000	-1000000	
9.460	0.06897	141.54	1.153	350.89	-1000000	-1000000	-1000000	-1000000	
9.480	0.06894	141.42	1.154	350.94	-1000000	-1000000	-1000000	-1000000	
9.500	0.06891	140.89	1.154	350.97	-1000000	-1000000	-1000000	-1000000	
9.520	0.06894	140.13	1.153	350.88	-1000000	-1000000	-1000000	-1000000	
9.540	0.06897	139.78	1.153	350.76	-1000000	-1000000	-1000000	-1000000	
9.560	0.06894	139.73	1.153	350.90	-1000000	-1000000	-1000000	-1000000	
9.580	0.06889	139.85	1.154	351.24	-1000000	-1000000	-1000000	-1000000	
9.600	0.06885	139.87	1.153	351.42	-1000000	-1000000	-1000000	-1000000	
9.620	0.06881	139.94	1.153	351.20	-1000000	-1000000	-1000000	-1000000	
9.640	0.06879	139.99	1.152	350.99	-1000000	-1000000	-1000000	-1000000	
9.660	0.06880	139.98	1.153	350.91	-1000000	-1000000	-1000000	-1000000	
9.680	0.06879	139.89	1.153	350.82	-1000000	-1000000	-1000000	-1000000	
9.700	0.06875	139.79	1.152	350.64	-1000000	-1000000	-1000000	-1000000	
9.720	0.06874	139.74	1.152	350.50	-1000000	-1000000	-1000000	-1000000	
9.740	0.06873	139.70	1.153	350.47	-1000000	-1000000	-1000000	-1000000	
9.760	0.06870	139.63	1.153	350.71	-1000000	-1000000	-1000000	-1000000	
9.780	0.06864	139.73	1.152	350.97	-1000000	-1000000	-1000000	-1000000	
9.800	0.06859	139.93	1.152	350.91	-1000000	-1000000	-1000000	-1000000	
9.820	0.06862	139.96	1.152	350.55	-1000000	-1000000	-1000000	-1000000	
9.840	0.06867	139.88	1.152	350.43	-1000000	-1000000	-1000000	-1000000	
9.860	0.06871	139.93	1.152	350.55	-1000000	-1000000	-1000000	-1000000	
9.880	0.06867	139.98	1.152	350.69	-1000000	-1000000	-1000000	-1000000	
9.900	0.06862	139.97	1.152	350.85	-1000000	-1000000	-1000000	-1000000	
9.920	0.06861	139.95	1.152	350.90	-1000000	-1000000	-1000000	-1000000	
9.940	0.06862	139.88	1.152	350.96	-1000000	-1000000	-1000000	-1000000	
9.960	0.06864	139.87	1.152	351.01	-1000000	-1000000	-1000000	-1000000	
9.980	0.06862	139.90	1.152	350.91	-1000000	-1000000	-1000000	-1000000	
10.00	0.06855	139.79	1.151	350.79	-1000000	-1000000	-1000000	-1000000	
10.02	0.06854	139.66	1.151	350.90	-1000000	-1000000	-1000000	-1000000	
10.04	0.06854	139.76	1.151	350.80	-1000000	-1000000	-1000000	-1000000	
10.06	0.06851	139.98	1.151	350.72	-1000000	-1000000	-1000000	-1000000	
10.08	0.06847	140.16	1.151	350.76	-1000000	-1000000	-1000000	-1000000	
10.10	0.06843	140.19	1.151	350.46	-1000000	-1000000	-1000000	-1000000	
10.12	0.06842	140.07	1.151	350.15	-1000000	-1000000	-1000000	-1000000	
10.14	0.06839	139.90	1.151	350.18	-1000000	-1000000	-1000000	-1000000	
10.16	0.06839	139.82	1.151	350.39	-1000000	-1000000	-1000000	-1000000	
10.18	0.06843	139.88	1.151	350.51	-1000000	-1000000	-1000000	-1000000	
10.20	0.06846	139.92	1.150	350.76	-1000000	-1000000	-1000000	-1000000	
10.22	0.06845	139.82	1.150	351.05	-1000000	-1000000	-1000000	-1000000	
10.24	0.06837	139.82	1.151	351.29	-1000000	-1000000	-1000000	-1000000	
10.26	0.06832	139.77	1.150	351.06	-1000000	-1000000	-1000000	-1000000	
10.28	0.06831	139.89	1.150	350.78	-1000000	-1000000	-1000000	-1000000	
10.30	0.06826	139.97	1.151	350.86	-1000000	-1000000	-1000000	-1000000	
10.32	0.06825	139.82	1.150	350.75	-1000000	-1000000	-1000000	-1000000	
10.34	0.06825	139.81	1.150	350.46	-1000000	-1000000	-1000000	-1000000	
10.36	0.06827	139.92	1.150	350.43	-1000000	-1000000	-1000000	-1000000	
10.38	0.06829	139.79	1.150	350.52	-1000000	-1000000	-1000000	-1000000	
10.40	0.06825	139.64	1.150	350.65	-1000000	-1000000	-1000000	-1000000	
10.42	0.06824	139.65	1.150	350.61	-1000000	-1000000	-1000000	-1000000	
10.44	0.06823	139.80	1.150	350.35	-1000000	-1000000	-1000000	-1000000	
10.46	0.06822	139.90	1.150	350.09	-1000000	-1000000	-1000000	-1000000	
10.48	0.06822	139.81	1.150	350.10	-1000000	-1000000	-1000000	-1000000	
10.50	0.06821	139.80	1.150	350.15	-1000000	-1000000	-1000000	-1000000	
10.52	0.06823	139.87	1.150	350.36	-1000000	-1000000	-1000000	-1000000	
10.54	0.06822	139.84	1.150	350.40	-1000000	-1000000	-1000000	-1000000	
10.56	0.06818	139.91	1.149	350.42	-1000000	-1000000	-1000000	-1000000	
10.58	0.06816	139.96	1.149	350.53	-1000000	-1000000	-1000000	-1000000	
10.60	0.06815	139.89	1.149	350.47	-1000000	-1000000	-1000000	-1000000	
10.62	0.06809	139.92	1.149	350.35	-1000000	-1000000	-1000000	-1000000	
10.64	0.06802	140.09	1.149	350.35	-1000000	-1000000	-1000000	-1000000	
10.66	0.06804	140.16	1.149	350.34	-1000000	-1000000	-1000000	-1000000	
10.68	0.06808	140.22	1.149	350.24	-1000000	-1000000	-1000000	-1000000	
10.70	0.06809	140.08	1.149	349.95	-1000000	-1000000	-1000000	-1000000	
10.72	0.06808	139.81	1.149	350.06	-1000000	-1000000	-1000000	-1000000	
10.74	0.06807	139.86	1.149	350.25	-1000000	-1000000	-1000000	-1000000	
10.76	0.06802	139.97	1.149	349.98	-1000000	-1000000	-1000000	-1000000	
10.78	0.06796	139.88	1.149	349.73	-1000000	-1000000	-1000000	-1000000	
10.80	0.06797	139.78	1.148	349.73	-1000000	-1000000	-1000000	-1000000	
10.82	0.06797	139.85	1.149	349.75	-1000000	-1000000	-1000000	-1000000	
10.84	0.06796	139.91	1.148	349.91	-1000000	-1000000	-1000000	-1000000	
10.86	0.06797	139.92	1.149	349.89	-1000000	-1000000	-1000000	-1000000	
10.88	0.06795	139.78	1.149	349.91	-1000000	-1000000	-1000000	-1000000	
10.90	0.06791	139.62	1.149	350.15	-1000000	-1000000	-1000000	-1000000	
10.92	0.06789	138.92	1.149	350.46	-1000000	-1000000	-1000000	-1000000	
10.94	0.06785	138.31	1.148	350.48	-1000000	-1000000	-1000000	-1000000	
10.96	0.06779	138.06	1.148	350.29	-1000000	-1000000	-1000000	-1000000	
10.98	0.06777	137.99	1.148	350.17	-1000000	-1000000	-1000000	-1000000	
11.00	0.06781	137.61	1.148	350.01	-1000000	-1000000	-1000000	-1000000	
11.02	0.06784	136.87	1.148	349.94	-1000000	-1000000	-1000000	-1000000	
11.04	0.06787	136.51	1.148	350.10	-1000000	-1000000	-1000000	-1000000	
11.06	0.06786	136.41	1.148	350.09	-1000000	-1000000	-1000000	-1000000	
11.08	0.06784	136.47	1.148	349.84	-1000000	-1000000	-1000000	-1000000	
11.10	0.06781	136.68	1.148	349.74	-1000000	-1000000	-1000000	-1000000	
11.12	0.06778	136.71	1.148	349.77	-1000000	-1000000	-1000000	-1000000	
11.14	0.06773	136.47	1.148	349.94	-1000000	-1000000	-1000000	-1000000	
11.16	0.06768	135.97	1.148	350.00	-1000000	-1000000	-1000000	-1000000	
11.18	0.06770	135.25	1.148	349.96	-1000000	-1000000	-1000000	-1000000	
11.20	0.06775	134.88	1.148	350.08	-1000000	-1000000	-1000000	-1000000	
11.22	0.06777	134.58	1.148	350.04	-1000000	-1000000	-1000000	-1000000	
11.24	0.06777	133.77	1.148	349.91	-1000000	-1000000	-1000000	-1000000	
11.26	0.06777	133.12	1.148	349.82	-1000000	-1000000	-1000000	-1000000	
11.28	0.06774	132.49	1.148	350.04	-1000000	-1000000	-1000000	-1000000	
11.30	0.06770	131.93	1.148	350.29	-1000000	-1000000	-1000000	-1000000	
11.32	0.06770	131.35	1.148	350.34	-1000000	-1000000	-1000000	-1000000	
11.34	0.06768	130.46	1.148	350.40	-1000000	-1000000	-1000000	-1000000	
11.36	0.06771	129.78	1.148	350.28	-1000000	-1000000	-1000000	-1000000	
11.38	0.06772	129.53	1.148	350.11	-1000000	-1000000	-1000000	-1000000	
11.40	0.06772	129.50	1.148	350.17	-1000000	-1000000	-1000000	-1000000	
11.42	0.06772	129.57	1.148	350.20	-1000000	-1000000	-1000000	-1000000	
11.44	0.06773	129.70	1.148	350.19	-1000000	-1000000	-1000000	-1000000	
11.46	0.06770	129.83	1.148	350.30	-1000000	-1000000	-1000000	-1000000	
11.48	0.06767	129.94	1.148	350.32	-1000000	-1000000	-1000000	-1000000	
11.50	0.06767	130.39	1.148	350.03	-1000000	-1000000	-1000000	-1000000	
11.52	0.06768	131.10	1.148	349.95	-1000000	-1000000	-1000000	-1000000	
11.54	0.06769	131.45	1.148	350.28	-1000000	-1000000	-1000000	-1000000	
11.56	0.06773	131.93	1.148	350.57	-1000000	-1000000	-1000000	-1000000	
11.58	0.06775	132.67	1.148	350.55	-1000000	-1000000	-1000000	-1000000	
11.60	0.06776	133.31	1.148	350.56	-1000000	-1000000	-1000000	-1000000	
11.62	0.06777	133.98	1.148	350.38	-1000000	-1000000	-1000000	-1000000	
11.64	0.06775	134.50	1.148	350.28	-1000000	-1000000	-1000000	-1000000	
11.66	0.06770	135.45	1.148	350.28	-1000000	-1000000	-1000000	-1000000	
11.68	0.06767	136.61	1.148	350.24	-1000000	-1000000	-1000000	-1000000	
11.70	0.06768	137.52	1.148	350.28	-1000000	-1000000	-1000000	-1000000	
11.72	0.06772	138.40	1.148	350.35	-1000000	-1000000	-1000000	-1000000	
11.74	0.06770	139.28	1.148	350.23	-1000000	-1000000	-1000000	-1000000	
11.76	0.06769	140.25	1.148	350.13	-1000000	-1000000	-1000000	-1000000	
11.78	0.06765	141.10	1.148	350.09	-1000000	-1000000	-1000000	-1000000	
11.80	0.06757	142.08	1.148	350.18	-1000000	-1000000	-1000000	-1000000	
11.82	0.06760	142.86	1.148	350.12	-1000000	-1000000	-1000000	-1000000	
11.84	0.06762	143.54	1.148	350.10	-1000000	-1000000	-1000000	-1000000	
11.86	0.06762	144.24	1.148	350.14	-1000000	-1000000	-1000000	-1000000	
11.88	0.06760	144.44	1.147	350.20	-1000000	-1000000	-1000000	-1000000	
11.90	0.06755	144.51	1.147	350.28	-1000000	-1000000	-1000000	-1000000	
11.92	0.06754	144.68	1.147	350.48	-1000000	-1000000	-1000000	-1000000	
11.94	0.06752	144.33	1.147	350.35	-1000000	-1000000	-1000000	-1000000	
11.96	0.06749	143.46	1.147	350.21	-1000000	-1000000	-1000000	-1000000	
11.98	0.06745	142.29	1.147	350.05	-1000000	-1000000	-1000000	-1000000	
12.00	0.06744	141.09	1.147	350.10	-1000000	-1000000	-1000000	-1000000	
12.02	0.06744	139.95	1.147	350.12	-1000000	-1000000	-1000000	-1000000	
12.04	0.06740	138.87	1.146	350.06	-1000000	-1000000	-1000000	-1000000	
12.06	0.06735	138.20	1.147	349.88	-1000000	-1000000	-1000000	-1000000	
12.08	0.06733	137.58	1.146	349.69	-1000000	-1000000	-1000000	-1000000	
12.10	0.06731	136.84	1.147	349.74	-1000000	-1000000	-1000000	-1000000	
12.12	0.06729	136.46	1.146	349.90	-1000000	-1000000	-1000000	-1000000	
12.14	0.06727	136.53	1.147	349.92	-1000000	-1000000	-1000000	-1000000	
12.16	0.06724	136.65	1.146	349.86	-1000000	-1000000	-1000000	-1000000	
12.18	0.06724	136.76	1.146	349.86	-1000000	-1000000	-1000000	-1000000	
12.20	0.06725	136.65	1.146	350.08	-1000000	-1000000	-1000000	-1000000	
12.22	0.06726	136.56	1.146	350.22	-1000000	-1000000	-1000000	-1000000	
12.24	0.06726	136.28	1.146	350.03	-1000000	-1000000	-1000000	-1000000	
12.26	0.06727	135.56	1.146	349.92	-1000000	-1000000	-1000000	-1000000	
12.28	0.06727	134.69	1.146	350.16	-1000000	-1000000	-1000000	-1000000	
12.30	0.06722	133.59	1.146	350.32	-1000000	-1000000	-1000000	-1000000	
12.32	0.06718	132.28	1.146	350.13	-1000000	-1000000	-1000000	-1000000	
12.34	0.06714	131.17	1.146	350.19	-1000000	-1000000	-1000000	-1000000	
12.36	0.06718	129.82	1.146	350.18	-1000000	-1000000	-1000000	-1000000	
12.38	0.06724	128.02	1.146	349.92	-1000000	-1000000	-1000000	-1000000	
12.40	0.06729	126.31	1.146	349.79	-1000000	-1000000	-1000000	-1000000	
12.42	0.06726	124.99	1.146	349.73	-1000000	-1000000	-1000000	-1000000	
12.44	0.06722	123.79	1.146	349.67	-1000000	-1000000	-1000000	-1000000	
12.46	0.06721	123.15	1.146	349.82	-1000000	-1000000	-1000000	-1000000	
12.48	0.06722	123.04	1.147	350.10	-1000000	-1000000	-1000000	-1000000	
12.50	0.06719	123.09	1.147	350.36	-1000000	-1000000	-1000000	-1000000	
12.52	0.06715	123.15	1.147	350.53	-1000000	-1000000	-1000000	-1000000	
12.54	0.06719	123.29	1.147	350.59	-1000000	-1000000	-1000000	-1000000	
12.56	0.06727	123.92	1.147	350.66	-1000000	-1000000	-1000000	-1000000	
12.58	0.06727	124.64	1.147	350.59	-1000000	-1000000	-1000000	-1000000	
12.60	0.06722	125.63	1.147	350.41	-1000000	-1000000	-1000000	-1000000	
12.62	0.06715	126.39	1.147	350.27	-1000000	-1000000	-1000000	-1000000	
12.64	0.06711	127.19	1.147	350.44	-1000000	-1000000	-1000000	-1000000	
12.66	0.06713	128.27	1.147	350.34	-1000000	-1000000	-1000000	-1000000	
12.68	0.06717	129.55	1.147	350.08	-1000000	-1000000	-1000000	-1000000	
12.70	0.06715	130.77	1.147	349.88	-1000000	-1000000	-1000000	-1000000	
12.72	0.06713	131.55	1.147	349.89	-1000000	-1000000	-1000000	-1000000	
12.74	0.06711	132.35	1.147	350.08	-1000000	-1000000	-1000000	-1000000	
12.76	0.06713	133.45	1.147	350.36	-1000000	-1000000	-1000000	-1000000	
12.78	0.06715	134.61	1.147	350.49	-1000000	-1000000	-1000000	-1000000	
12.80	0.06716	135.62	1.147	350.40	-1000000	-1000000	-1000000	-1000000	
12.82	0.06716	136.57	1.147	350.35	-1000000	-1000000	-1000000	-1000000	
12.84	0.06714	137.71	1.147	350.39	-1000000	-1000000	-1000000	-1000000	
12.86	0.06710	138.89	1.147	350.35	-1000000	-1000000	-1000000	-1000000	
12.88	0.06710	140.11	1.147	350.40	-1000000	-1000000	-1000000	-1000000	
12.90	0.06712	141.16	1.147	350.36	-1000000	-1000000	-1000000	-1000000	
12.92	0.06716	141.95	1.147	350.28	-1000000	-1000000	-1000000	-1000000	
12.94	0.06715	142.87	1.147	350.35	-1000000	-1000000	-1000000	-1000000	
12.96	0.06708	143.66	1.147	350.27	-1000000	-1000000	-1000000	-1000000	
12.98	0.06709	144.48	1.147	350.19	-1000000	-1000000	-1000000	-1000000	
13.00	0.06710	145.63	1.147	350.05	-1000000	-1000000	-1000000	-1000000	
13.02	0.06704	146.35	1.147	349.89	-1000000	-1000000	-1000000	-1000000	
13.04	0.06700	146.83	1.147	349.82	-1000000	-1000000	-1000000	-1000000	
13.06	0.06702	147.50	1.147	349.64	-1000000	-1000000	-1000000	-1000000	
13.08	0.06709	147.87	1.147	349.50	-1000000	-1000000	-1000000	-1000000	
13.10	0.06709	148.01	1.147	349.69	-1000000	-1000000	-1000000	-1000000	
13.12	0.06704	148.17	1.146	349.96	-1000000	-1000000	-1000000	-1000000	
13.14	0.06695	148.23	1.146	349.91	-1000000	-1000000	-1000000	-1000000	
13.16	0.06684	148.28	1.146	349.89	-1000000	-1000000	-1000000	-1000000	
13.18	0.06674	147.82	1.146	349.99	-1000000	-1000000	-1000000	-1000000	
13.20	0.06673	146.95	1.146	350.08	-1000000	-1000000	-1000000	-1000000	
13.22	0.06682	145.23	1.145	350.05	-1000000	-1000000	-1000000	-1000000	
13.24	0.06689	143.08	1.145	350.13	-1000000	-1000000	-1000000	-1000000	
13.26	0.06689	140.50	1.145	350.07	-1000000	-1000000	-1000000	-1000000	
13.28	0.06683	138.10	1.145	349.89	-1000000	-1000000	-1000000	-1000000	
13.30	0.06679	135.91	1.145	349.92	-1000000	-1000000	-1000000	-1000000	
13.32	0.06677	134.06	1.145	349.92	-1000000	-1000000	-1000000	-1000000	
13.34	0.06676	132.44	1.145	349.86	-1000000	-1000000	-1000000	-1000000	
13.36	0.06676	131.21	1.145	349.71	-1000000	-1000000	-1000000	-1000000	
13.38	0.06674	130.18	1.145	349.57	-1000000	-1000000	-1000000	-1000000	
13.40	0.06673	129.15	1.145	349.32	-1000000	-1000000	-1000000	-1000000	
13.42	0.06676	128.26	1.145	349.33	-1000000	-1000000	-1000000	-1000000	
13.44	0.06676	127.22	1.145	349.49	-1000000	-1000000	-1000000	-1000000	
13.46	0.06671	126.42	1.145	349.75	-1000000	-1000000	-1000000	-1000000	
13.48	0.06667	125.51	1.145	349.70	-1000000	-1000000	-1000000	-1000000	
13.50	0.06663	124.40	1.145	349.78	-1000000	-1000000	-1000000	-1000000	
13.52	0.06665	122.99	1.145	350.14	-1000000	-1000000	-1000000	-1000000	
13.54	0.06675	121.24	1.145	350.43	-1000000	-1000000	-1000000	-1000000	
13.56	0.06680	119.33	1.146	350.33	-1000000	-1000000	-1000000	-1000000	
13.58	0.06685	117.17	1.150	350.25	-1000000	-1000000	-1000000	-1000000	
13.60	0.06686	115.01	1.154	350.38	-1000000	-1000000	-1000000	-1000000	
13.62	0.06684	113.09	1.155	350.58	-1000000	-1000000	-1000000	-1000000	
13.64	0.06681	111.42	1.156	350.66	-1000000	-1000000	-1000000	-1000000	
13.66	0.06683	109.66	1.157	350.64	-1000000	-1000000	-1000000	-1000000	
13.68	0.06688	108.33	1.157	350.57	-1000000	-1000000	-1000000	-1000000	
13.70	0.06691	108.09	1.157	350.67	-1000000	-1000000	-1000000	-1000000	
13.72	0.06694	108.87	1.158	350.67	-1000000	-1000000	-1000000	-1000000	
13.74	0.06696	110.42	1.158	350.46	-1000000	-1000000	-1000000	-1000000	
13.76	0.06700	112.51	1.158	350.41	-1000000	-1000000	-1000000	-1000000	
13.78	0.06700	114.94	1.158	350.52	-1000000	-1000000	-1000000	-1000000	
13.80	0.06699	117.54	1.159	350.52	-1000000	-1000000	-1000000	-1000000	
13.82	0.06697	120.55	1.159	350.35	-1000000	-1000000	-1000000	-1000000	
13.84	0.06701	123.48	1.159	350.44	-1000000	-1000000	-1000000	-1000000	
13.86	0.06705	126.56	1.159	350.51	-1000000	-1000000	-1000000	-1000000	
13.88	0.06709	130.84	1.159	350.69	-1000000	-1000000	-1000000	-1000000	
13.90	0.06717	136.50	1.159	350.84	-1000000	-1000000	-1000000	-1000000	
13.92	0.06728	143.57	1.159	350.79	-1000000	-1000000	-1000000	-1000000	
13.94	0.06740	153.08	1.160	350.79	-1000000	-1000000	-1000000	-1000000	
13.96	0.06752	165.27	1.160	350.89	-1000000	-1000000	-1000000	-1000000	
13.98	0.06766	179.86	1.161	350.91	-1000000	-1000000	-1000000	-1000000	
14.00	0.06781	196.89	1.163	350.84	-1000000	-1000000	-1000000	-1000000	
14.02	0.06794	217.02	1.164	350.45	-1000000	-1000000	-1000000	-1000000	
14.04	0.06814	240.87	1.165	350.20	-1000000	-1000000	-1000000	-1000000	
14.06	0.06847	268.52	1.166	350.19	-1000000	-1000000	-1000000	-1000000	
14.08	0.06888	299.97	1.168	350.15	-1000000	-1000000	-1000000	-1000000	
14.10	0.06923	335.71	1.169	350.17	-1000000	-1000000	-1000000	-1000000	
14.12	0.06953	375.70	1.171	350.24	-1000000	-1000000	-1000000	-1000000	
14.14	0.06989	419.78	1.173	350.13	-1000000	-1000000	-1000000	-1000000	
14.16	0.07026	467.99	1.175	349.94	-1000000	-1000000	-1000000	-1000000	
14.18	0.07062	520.05	1.177	350.14	-1000000	-1000000	-1000000	-1000000	
14.20	0.07100	574.96	1.179	350.37	-1000000	-1000000	-1000000	-1000000	
14.22	0.07145	632.02	1.181	350.18	-1000000	-1000000	-1000000	-1000000	
14.24	0.07190	691.86	1.184	349.84	-1000000	-1000000	-1000000	-1000000	
14.26	0.07238	754.43	1.186	350.06	-1000000	-1000000	-1000000	-1000000	
14.28	0.07285	819.40	1.189	350.28	-1000000	-1000000	-1000000	-1000000	
14.30	0.07331	886.84	1.191	350.46	-1000000	-1000000	-1000000	-1000000	
14.32	0.07383	956.74	1.194	350.40	-1000000	-1000000	-1000000	-1000000	
14.34	0.07435	1029.0	1.197	350.13	-1000000	-1000000	-1000000	-1000000	
14.36	0.07490	1103.7	1.201	349.97	-1000000	-1000000	-1000000	-1000000	
14.38	0.07543	1181.5	1.204	349.94	-1000000	-1000000	-1000000	-1000000	
14.40	0.07601	1261.4	1.207	349.76	-1000000	-1000000	-1000000	-1000000	
14.42	0.07661	1343.6	1.211	349.47	-1000000	-1000000	-1000000	-1000000	
14.44	0.07722	1428.4	1.214	349.13	-1000000	-1000000	-1000000	-1000000	
14.46	0.07780	1515.7	1.218	349.02	-1000000	-1000000	-1000000	-1000000	
14.48	0.07838	1605.0	1.222	349.30	-1000000	-1000000	-1000000	-1000000	
14.50	0.07900	1696.5	1.226	349.45	-1000000	-1000000	-1000000	-1000000	
14.52	0.07968	1789.9	1.230	349.24	-1000000	-1000000	-1000000	-1000000	
14.54	0.08036	1885.3	1.234	349.38	-1000000	-1000000	-1000000	-1000000	
14.56	0.08104	1983.2	1.238	349.44	-1000000	-1000000	-1000000	-1000000	
14.58	0.08177	2083.2	1.243	349.32	-1000000	-1000000	-1000000	-1000000	
14.60	0.08249	2185.2	1.248	349.38	-1000000	-1000000	-1000000	-1000000	
14.62	0.08322	2289.0	1.252	349.19	-1000000	-1000000	-1000000	-1000000	
14.64	0.08396	2394.3	1.257	349.13	-1000000	-1000000	-1000000	-1000000	
14.66	0.08476	2501.1	1.262	349.23	-1000000	-1000000	-1000000	-1000000	
14.68	0.08561	2609.5	1.267	349.34	-1000000	-1000000	-1000000	-1000000	
14.70	0.08642	2719.1	1.272	349.43	-1000000	-1000000	-1000000	-1000000	
14.72	0.08730	2829.2	1.277	349.31	-1000000	-1000000	-1000000	-1000000	
14.74	0.08825	2940.2	1.283	349.23	-1000000	-1000000	-1000000	-1000000	
14.76	0.08926	3051.5	1.288	349.49	-1000000	-1000000	-1000000	-1000000	
14.78	0.09023	3162.5	1.294	349.99	-1000000	-1000000	-1000000	-1000000	
14.80	0.09117	3274.3	1.300	350.18	-1000000	-1000000	-1000000	-1000000	
14.82	0.09210	3387.4	1.306	350.21	-1000000	-1000000	-1000000	-1000000	
14.84	0.09310	3502.2	1.312	350.39	-1000000	-1000000	-1000000	-1000000	
14.86	0.09417	3619.3	1.318	350.98	-1000000	-1000000	-1000000	-1000000	
14.88	0.09527	3738.8	1.324	351.31	-1000000	-1000000	-1000000	-1000000	
14.90	0.09645	3860.2	1.330	351.29	-1000000	-1000000	-1000000	-1000000	
14.92	0.09767	3982.6	1.337	351.27	-1000000	-1000000	-1000000	-1000000	
14.94	0.09894	4105.5	1.344	351.12	-1000000	-1000000	-1000000	-1000000	
14.96	0.1003	4229.2	1.350	350.92	-1000000	-1000000	-1000000	-1000000	
14.98	0.1018	4352.9	1.357	350.67	-1000000	-1000000	-1000000	-1000000	
15.00	0.1034	4475.8	1.364	350.60	-1000000	-1000000	-1000000	-1000000	
15.02	0.1052	4597.5	1.371	350.56	-1000000	-1000000	-1000000	-1000000	
15.04	0.1071	4717.6	1.378	350.44	-1000000	-1000000	-1000000	-1000000	
15.06	0.1094	4834.8	1.385	350.24	-1000000	-1000000	-1000000	-1000000	
15.08	0.1119	4947.8	1.393	350.34	-1000000	-1000000	-1000000	-1000000	
15.10	0.1147	5055.0	1.401	350.52	-1000000	-1000000	-1000000	-1000000	
15.12	0.1176	5155.3	1.408	350.63	-1000000	-1000000	-1000000	-1000000	
15.14	0.1208	5247.8	1.416	350.80	-1000000	-1000000	-1000000	-1000000	
15.16	0.1243	5332.4	1.424	350.90	-1000000	-1000000	-1000000	-1000000	
15.18	0.1280	5409.5	1.432	351.00	-1000000	-1000000	-1000000	-1000000	
15.20	0.1319	5480.2	1.440	351.10	-1000000	-1000000	-1000000	-1000000	
15.22	0.1358	5545.5	1.448	350.93	-1000000	-1000000	-1000000	-1000000	
15.24	0.1399	5606.3	1.457	350.92	-1000000	-1000000	-1000000	-1000000	
15.26	0.1440	5663.7	1.465	350.97	-1000000	-1000000	-1000000	-1000000	
15.28	0.1482	5718.6	1.474	350.67	-1000000	-1000000	-1000000	-1000000	
15.30	0.1525	5771.1	1.483	350.23	-1000000	-1000000	-1000000	-1000000	
15.32	0.1567	5822.0	1.492	350.01	-1000000	-1000000	-1000000	-1000000	
15.34	0.1610	5871.7	1.501	349.91	-1000000	-1000000	-1000000	-1000000	
15.36	0.1654	5920.4	1.510	349.89	-1000000	-1000000	-1000000	-1000000	
15.38	0.1699	5968.3	1.519	350.02	-1000000	-1000000	-1000000	-1000000	
15.40	0.1745	6015.7	1.528	349.96	-1000000	-1000000	-1000000	-1000000	
15.42	0.1791	6062.3	1.538	349.94	-1000000	-1000000	-1000000	-1000000	
15.44	0.1837	6108.2	1.547	350.15	-1000000	-1000000	-1000000	-1000000	
15.46	0.1884	6153.5	1.557	350.04	-1000000	-1000000	-1000000	-1000000	
15.48	0.1931	6198.5	1.567	349.70	-1000000	-1000000	-1000000	-1000000	
15.50	0.1979	6243.0	1.577	349.66	-1000000	-1000000	-1000000	-1000000	
15.52	0.2028	6287.1	1.587	350.17	-1000000	-1000000	-1000000	-1000000	
15.54	0.2077	6330.3	1.597	350.50	-1000000	-1000000	-1000000	-1000000	
15.56	0.2126	6372.4	1.608	350.38	-1000000	-1000000	-1000000	-1000000	
15.58	0.2177	6414.5	1.618	350.31	-1000000	-1000000	-1000000	-1000000	
15.60	0.2229	6456.8	1.629	350.14	-1000000	-1000000	-1000000	-1000000	
15.62	0.2281	6498.5	1.639	349.86	-1000000	-1000000	-1000000	-1000000	
15.64	0.2332	6539.8	1.650	349.72	-1000000	-1000000	-1000000	-1000000	
15.66	0.2384	6581.1	1.661	349.65	-1000000	-1000000	-1000000	-1000000	
15.68	0.2436	6622.0	1.672	349.73	-1000000	-1000000	-1000000	-1000000	
15.70	0.2489	6662.3	1.683	349.78	-1000000	-1000000	-1000000	-1000000	
15.72	0.2544	6702.4	1.694	349.61	-1000000	-1000000	-1000000	-1000000	
15.74	0.2599	6742.1	1.706	349.46	-1000000	-1000000	-1000000	-1000000	
15.76	0.2655	6781.1	1.717	349.55	-1000000	-1000000	-1000000	-1000000	
15.78	0.2710	6819.8	1.729	349.65	-1000000	-1000000	-1000000	-1000000	
15.80	0.2766	6858.2	1.741	349.82	-1000000	-1000000	-1000000	-1000000	
15.82	0.2822	6895.9	1.753	349.82	-1000000	-1000000	-1000000	-1000000	
15.84	0.2879	6933.1	1.765	349.86	-1000000	-1000000	-1000000	-1000000	
15.86	0.2937	6970.0	1.777	350.04	-1000000	-1000000	-1000000	-1000000	
15.88	0.2994	7006.3	1.789	350.13	-1000000	-1000000	-1000000	-1000000	
15.90	0.3053	7042.5	1.801	350.26	-1000000	-1000000	-1000000	-1000000	
15.92	0.3113	7078.7	1.814	350.34	-1000000	-1000000	-1000000	-1000000	
15.94	0.3173	7114.6	1.827	350.43	-1000000	-1000000	-1000000	-1000000	
15.96	0.3234	7150.4	1.839	350.51	-1000000	-1000000	-1000000	-1000000	
15.98	0.3294	7186.4	1.852	350.52	-1000000	-1000000	-1000000	-1000000	
16.00	0.3355	7222.3	1.865	350.61	-1000000	-1000000	-1000000	-1000000	
16.02	0.3417	7257.9	1.878	350.59	-1000000	-1000000	-1000000	-1000000	
16.04	0.3479	7293.3	1.891	350.73	-1000000	-1000000	-1000000	-1000000	
16.06	0.3542	7328.4	1.905	350.90	-1000000	-1000000	-1000000	-1000000	
16.08	0.3604	7363.1	1.918	350.75	-1000000	-1000000	-1000000	-1000000	
16.10	0.3667	7397.6	1.932	350.60	-1000000	-1000000	-1000000	-1000000	
16.12	0.3731	7432.2	1.945	350.55	-1000000	-1000000	-1000000	-1000000	
16.14	0.3797	7467.0	1.959	350.78	-1000000	-1000000	-1000000	-1000000	
16.16	0.3862	7502.0	1.973	351.06	-1000000	-1000000	-1000000	-1000000	
16.18	0.3928	7536.9	1.987	351.03	-1000000	-1000000	-1000000	-1000000	
16.20	0.3995	7571.8	2.001	351.01	-1000000	-1000000	-1000000	-1000000	
16.22	0.4062	7606.9	2.015	351.26	-1000000	-1000000	-1000000	-1000000	
16.24	0.4131	7641.7	2.030	351.19	-1000000	-1000000	-1000000	-1000000	
16.26	0.4199	7676.0	2.045	350.95	-1000000	-1000000	-1000000	-1000000	
16.28	0.4268	7710.2	2.059	351.04	-1000000	-1000000	-1000000	-1000000	
16.30	0.4337	7743.5	2.074	351.12	-1000000	-1000000	-1000000	-1000000	
16.32	0.4400	7776.2	2.089	350.82	-1000000	-1000000	-1000000	-1000000	
16.34	0.4456	7804.9	2.104	350.47	-1000000	-1000000	-1000000	-1000000	
16.36	0.4515	7829.0	2.119	350.36	-1000000	-1000000	-1000000	-1000000	
16.38	0.4581	7854.3	2.134	350.25	-1000000	-1000000	-1000000	-1000000	
16.40	0.4653	7883.7	2.150	350.16	-1000000	-1000000	-1000000	-1000000	
16.42	0.4727	7915.9	2.165	350.15	-1000000	-1000000	-1000000	-1000000	
16.44	0.4803	7952.2	2.181	350.11	-1000000	-1000000	-1000000	-1000000	
16.46	0.4879	7992.1	2.196	350.19	-1000000	-1000000	-1000000	-1000000	
16.48	0.4955	8030.1	2.212	350.43	-1000000	-1000000	-1000000	-1000000	
16.50	0.5033	8063.8	2.228	350.69	-1000000	-1000000	-1000000	-1000000	
16.52	0.5111	8096.1	2.244	350.75	-1000000	-1000000	-1000000	-1000000	
16.54	0.5191	8128.7	2.260	350.64	-1000000	-1000000	-1000000	-1000000	
16.56	0.5271	8161.5	2.277	350.68	-1000000	-1000000	-1000000	-1000000	
16.58	0.5353	8194.5	2.293	350.78	-1000000	-1000000	-1000000	-1000000	
16.60	0.5434	8227.0	2.310	350.71	-1000000	-1000000	-1000000	-1000000	
16.62	0.5515	8259.3	2.326	350.58	-1000000	-1000000	-1000000	-1000000	
16.64	0.5596	8290.6	2.343	350.58	-1000000	-1000000	-1000000	-1000000	
16.66	0.5674	8320.9	2.360	350.57	-1000000	-1000000	-1000000	-1000000	
16.68	0.5745	8348.7	2.377	350.45	-1000000	-1000000	-1000000	-1000000	
16.70	0.5809	8371.1	2.394	350.27	-1000000	-1000000	-1000000	-1000000	
16.72	0.5873	8390.3	2.411	350.32	-1000000	-1000000	-1000000	-1000000	
16.74	0.5938	8409.2	2.429	350.39	-1000000	-1000000	-1000000	-1000000	
16.76	0.6011	8429.3	2.446	350.26	-1000000	-1000000	-1000000	-1000000	
16.78	0.6093	8455.1	2.464	350.20	-1000000	-1000000	-1000000	-1000000	
16.80	0.6181	8489.4	2.482	350.24	-1000000	-1000000	-1000000	-1000000	
16.82	0.6270	8527.8	2.500	350.10	-1000000	-1000000	-1000000	-1000000	
16.84	0.6358	8565.6	2.518	350.08	-1000000	-1000000	-1000000	-1000000	
16.86	0.6447	8602.2	2.536	350.40	-1000000	-1000000	-1000000	-1000000	
16.88	0.6536	8634.8	2.554	350.58	-1000000	-1000000	-1000000	-1000000	
16.90	0.6627	8663.9	2.572	350.66	-1000000	-1000000	-1000000	-1000000	
16.92	0.6718	8691.7	2.591	350.71	-1000000	-1000000	-1000000	-1000000	
16.94	0.6811	8719.5	2.610	350.56	-1000000	-1000000	-1000000	-1000000	
16.96	0.6905	8748.0	2.628	350.06	-1000000	-1000000	-1000000	-1000000	
16.98	0.6998	8776.9	2.647	350.05	-1000000	-1000000	-1000000	-1000000	
17.00	0.7092	8805.5	2.666	350.21	-1000000	-1000000	-1000000	-1000000	
17.02	0.7186	8833.8	2.685	350.16	-1000000	-1000000	-1000000	-1000000	
17.04	0.7278	8861.2	2.704	350.13	-1000000	-1000000	-1000000	-1000000	
17.06	0.7368	8886.9	2.723	350.23	-1000000	-1000000	-1000000	-1000000	
17.08	0.7456	8910.7	2.743	350.45	-1000000	-1000000	-1000000	-1000000	
17.10	0.7542	8932.9	2.763	350.26	-1000000	-1000000	-1000000	-1000000	
17.12	0.7624	8953.6	2.782	349.81	-1000000	-1000000	-1000000	-1000000	
17.14	0.7704	8972.8	2.802	349.64	-1000000	-1000000	-1000000	-1000000	
17.16	0.7786	8992.1	2.822	349.85	-1000000	-1000000	-1000000	-1000000	
17.18	0.7867	9012.5	2.842	349.97	-1000000	-1000000	-1000000	-1000000	
17.20	0.7954	9033.5	2.862	349.74	-1000000	-1000000	-1000000	-1000000	
17.22	0.8050	9058.0	2.882	349.62	-1000000	-1000000	-1000000	-1000000	
17.24	0.8152	9087.7	2.903	349.88	-1000000	-1000000	-1000000	-1000000	
17.26	0.8257	9119.1	2.923	350.09	-1000000	-1000000	-1000000	-1000000	
17.28	0.8363	9150.1	2.944	350.23	-1000000	-1000000	-1000000	-1000000	
17.30	0.8468	9180.9	2.965	350.29	-1000000	-1000000	-1000000	-1000000	
17.32	0.8572	9209.1	2.986	350.42	-1000000	-1000000	-1000000	-1000000	
17.34	0.8676	9233.7	3.007	350.36	-1000000	-1000000	-1000000	-1000000	
17.36	0.8781	9256.2	3.028	350.04	-1000000	-1000000	-1000000	-1000000	
17.38	0.8887	9278.8	3.049	349.89	-1000000	-1000000	-1000000	-1000000	
17.40	0.8993	9301.7	3.070	350.02	-1000000	-1000000	-1000000	-1000000	
17.42	0.9100	9324.4	3.092	349.88	-1000000	-1000000	-1000000	-1000000	
17.44	0.9209	9347.2	3.114	349.65	-1000000	-1000000	-1000000	-1000000	
17.46	0.9317	9369.6	3.135	349.69	-1000000	-1000000	-1000000	-1000000	
17.48	0.9424	9391.4	3.157	349.69	-1000000	-1000000	-1000000	-1000000	
17.50	0.9532	9412.8	3.179	349.67	-1000000	-1000000	-1000000	-1000000	
17.52	0.9640	9433.8	3.201	349.65	-1000000	-1000000	-1000000	-1000000	
17.54	0.9748	9454.8	3.223	349.57	-1000000	-1000000	-1000000	-1000000	
17.56	0.9857	9475.6	3.246	349.60	-1000000	-1000000	-1000000	-1000000	
17.58	0.9968	9495.8	3.268	350.14	-1000000	-1000000	-1000000	-1000000	
17.60	1.008	9516.6	3.291	350.61	-1000000	-1000000	-1000000	-1000000	
17.62	1.019	9537.4	3.313	350.86	-1000000	-1000000	-1000000	-1000000	
17.64	1.031	9557.9	3.336	350.91	-1000000	-1000000	-1000000	-1000000	
17.66	1.042	9578.1	3.359	350.81	-1000000	-1000000	-1000000	-1000000	
17.68	1.053	9597.3	3.382	350.93	-1000000	-1000000	-1000000	-1000000	
17.70	1.064	9615.3	3.405	351.03	-1000000	-1000000	-1000000	-1000000	
17.72	1.075	9631.7	3.429	351.09	-1000000	-1000000	-1000000	-1000000	
17.74	1.086	9647.9	3.452	351.06	-1000000	-1000000	-1000000	-1000000	
17.76	1.098	9664.6	3.475	350.99	-1000000	-1000000	-1000000	-1000000	
17.78	1.109	9681.4	3.499	350.94	-1000000	-1000000	-1000000	-1000000	
17.80	1.120	9698.2	3.523	350.86	-1000000	-1000000	-1000000	-1000000	
17.82	1.132	9715.4	3.547	350.85	-1000000	-1000000	-1000000	-1000000	
17.84	1.144	9734.3	3.571	350.98	-1000000	-1000000	-1000000	-1000000	
17.86	1.156	9754.9	3.595	351.19	-1000000	-1000000	-1000000	-1000000	
17.88	1.168	9775.9	3.619	351.30	-1000000	-1000000	-1000000	-1000000	
17.90	1.181	9797.8	3.643	351.50	-1000000	-1000000	-1000000	-1000000	
17.92	1.193	9819.8	3.668	351.55	-1000000	-1000000	-1000000	-1000000	
17.94	1.206	9839.2	3.692	351.51	-1000000	-1000000	-1000000	-1000000	
17.96	1.218	9856.3	3.717	351.35	-1000000	-1000000	-1000000	-1000000	
17.98	1.231	9872.7	3.742	351.56	-1000000	-1000000	-1000000	-1000000	
18.00	1.244	9888.6	3.767	351.92	-1000000	-1000000	-1000000	-1000000	
18.02	1.256	9904.3	3.792	352.03	-1000000	-1000000	-1000000	-1000000	
18.04	1.269	9920.1	3.817	351.94	-1000000	-1000000	-1000000	-1000000	
18.06	1.282	9936.4	3.843	351.91	-1000000	-1000000	-1000000	-1000000	
18.08	1.296	9953.1	3.868	351.71	-1000000	-1000000	-1000000	-1000000	
18.10	1.309	9969.9	3.893	351.64	-1000000	-1000000	-1000000	-1000000	
18.12	1.322	9986.8	3.919	351.68	-1000000	-1000000	-1000000	-1000000	
18.14	1.336	10003	3.945	351.57	-1000000	-1000000	-1000000	-1000000	
18.16	1.350	10020	3.971	351.50	-1000000	-1000000	-1000000	-1000000	
18.18	1.363	10036	3.997	351.65	-1000000	-1000000	-1000000	-1000000	
18.20	1.377	10051	4.023	351.72	-1000000	-1000000	-1000000	-1000000	
18.22	1.391	10067	4.049	351.97	-1000000	-1000000	-1000000	-1000000	
18.24	1.405	10082	4.076	351.92	-1000000	-1000000	-1000000	-1000000	
18.26	1.419	10097	4.102	351.84	-1000000	-1000000	-1000000	-1000000	
18.28	1.433	10112	4.129	351.87	-1000000	-1000000	-1000000	-1000000	
18.30	1.448	10126	4.156	352.03	-1000000	-1000000	-1000000	-1000000	
18.32	1.462	10139	4.183	352.12	-1000000	-1000000	-1000000	-1000000	
18.34	1.476	10153	4.210	352.17	-1000000	-1000000	-1000000	-1000000	
18.36	1.491	10166	4.237	352.21	-1000000	-1000000	-1000000	-1000000	
18.38	1.505	10179	4.264	352.23	-1000000	-1000000	-1000000	-1000000	
18.40	1.520	10192	4.291	352.27	-1000000	-1000000	-1000000	-1000000	
18.42	1.534	10205	4.319	352.13	-1000000	-1000000	-1000000	-1000000	
18.44	1.549	10218	4.346	352.17	-1000000	-1000000	-1000000	-1000000	
18.46	1.564	10231	4.374	352.38	-1000000	-1000000	-1000000	-1000000	
18.48	1.579	10243	4.402	352.47	-1000000	-1000000	-1000000	-1000000	
18.50	1.593	10255	4.430	352.51	-1000000	-1000000	-1000000	-1000000	
18.52	1.608	10266	4.458	352.50	-1000000	-1000000	-1000000	-1000000	
18.54	1.623	10278	4.486	352.63	-1000000	-1000000	-1000000	-1000000	
18.56	1.638	10289	4.514	352.89	-1000000	-1000000	-1000000	-1000000	
18.58	1.653	10300	4.543	352.89	-1000000	-1000000	-1000000	-1000000	
18.60	1.669	10311	4.571	352.79	-1000000	-1000000	-1000000	-1000000	
18.62	1.684	10321	4.600	352.75	-1000000	-1000000	-1000000	-1000000	
18.64	1.699	10331	4.629	352.70	-1000000	-1000000	-1000000	-1000000	
18.66	1.714	10341	4.658	352.58	-1000000	-1000000	-1000000	-1000000	
18.68	1.729	10350	4.687	352.62	-1000000	-1000000	-1000000	-1000000	
18.70	1.744	10358	4.716	352.73	-1000000	-1000000	-1000000	-1000000	
18.72	1.759	10366	4.745	352.74	-1000000	-1000000	-1000000	-1000000	
18.74	1.774	10374	4.775	352.69	-1000000	-1000000	-1000000	-1000000	
18.76	1.789	10382	4.804	352.63	-1000000	-1000000	-1000000	-1000000	
18.78	1.804	10392	4.834	352.60	-1000000	-1000000	-1000000	-1000000	
18.80	1.820	10403	4.864	352.72	-1000000	-1000000	-1000000	-1000000	
18.82	1.836	10416	4.894	352.97	-1000000	-1000000	-1000000	-1000000	
18.84	1.852	10429	4.924	352.95	-1000000	-1000000	-1000000	-1000000	
18.86	1.869	10442	4.954	352.91	-1000000	-1000000	-1000000	-1000000	
18.88	1.886	10454	4.984	353.05	-1000000	-1000000	-1000000	-1000000	
18.90	1.903	10465	5.014	353.16	-1000000	-1000000	-1000000	-1000000	
18.92	1.919	10474	5.045	353.33	-1000000	-1000000	-1000000	-1000000	
18.94	1.936	10482	5.075	353.48	-1000000	-1000000	-1000000	-1000000	
18.96	1.954	10490	5.106	353.59	-1000000	-1000000	-1000000	-1000000	
18.98	1.971	10498	5.137	353.72	-1000000	-1000000	-1000000	-1000000	
19.00	1.988	10506	5.168	353.58	-1000000	-1000000	-1000000	-1000000	
19.02	2.005	10513	5.199	353.63	-1000000	-1000000	-1000000	-1000000	
19.04	2.023	10521	5.230	353.66	-1000000	-1000000	-1000000	-1000000	
19.06	2.040	10528	5.261	353.62	-1000000	-1000000	-1000000	-1000000	
19.08	2.058	10536	5.293	353.54	-1000000	-1000000	-1000000	-1000000	
19.10	2.076	10543	5.324	353.31	-1000000	-1000000	-1000000	-1000000	
19.12	2.094	10550	5.356	353.37	-1000000	-1000000	-1000000	-1000000	
19.14	2.112	10557	5.388	353.72	-1000000	-1000000	-1000000	-1000000	
19.16	2.130	10564	5.420	353.90	-1000000	-1000000	-1000000	-1000000	
19.18	2.148	10570	5.452	353.82	-1000000	-1000000	-1000000	-1000000	
19.20	2.166	10577	5.484	353.73	-1000000	-1000000	-1000000	-1000000	
19.22	2.185	10583	5.516	353.83	-1000000	-1000000	-1000000	-1000000	
19.24	2.203	10589	5.548	354.10	-1000000	-1000000	-1000000	-1000000	
19.26	2.222	10595	5.581	354.25	-1000000	-1000000	-1000000	-1000000	
19.28	2.240	10601	5.614	354.39	-1000000	-1000000	-1000000	-1000000	
19.30	2.259	10606	5.646	354.49	-1000000	-1000000	-1000000	-1000000	
19.32	2.278	10612	5.679	354.61	-1000000	-1000000	-1000000	-1000000	
19.34	2.297	10617	5.712	354.89	-1000000	-1000000	-1000000	-1000000	
19.36	2.316	10622	5.745	354.98	-1000000	-1000000	-1000000	-1000000	
19.38	2.335	10627	5.779	354.78	-1000000	-1000000	-1000000	-1000000	
19.40	2.354	10632	5.812	354.50	-1000000	-1000000	-1000000	-1000000	
19.42	2.373	10637	5.845	354.45	-1000000	-1000000	-1000000	-1000000	
19.44	2.392	10641	5.879	354.54	-1000000	-1000000	-1000000	-1000000	
19.46	2.412	10645	5.913	354.70	-1000000	-1000000	-1000000	-1000000	
19.48	2.431	10650	5.947	354.77	-1000000	-1000000	-1000000	-1000000	
19.50	2.451	10654	5.980	354.95	-1000000	-1000000	-1000000	-1000000	
19.52	2.471	10658	6.015	355.12	-1000000	-1000000	-1000000	-1000000	
19.54	2.490	10662	6.049	355.47	-1000000	-1000000	-1000000	-1000000	
19.56	2.510	10665	6.083	355.79	-1000000	-1000000	-1000000	-1000000	
19.58	2.530	10669	6.118	355.76	-1000000	-1000000	-1000000	-1000000	
19.60	2.550	10672	6.152	355.86	-1000000	-1000000	-1000000	-1000000	
19.62	2.570	10675	6.187	355.69	-1000000	-1000000	-1000000	-1000000	
19.64	2.591	10678	6.222	355.52	-1000000	-1000000	-1000000	-1000000	
19.66	2.611	10681	6.257	355.49	-1000000	-1000000	-1000000	-1000000	
19.68	2.631	10683	6.291	355.54	-1000000	-1000000	-1000000	-1000000	
19.70	2.652	10685	6.327	355.59	-1000000	-1000000	-1000000	-1000000	
19.72	2.672	10687	6.362	355.54	-1000000	-1000000	-1000000	-1000000	
19.74	2.693	10689	6.397	355.66	-1000000	-1000000	-1000000	-1000000	
19.76	2.713	10691	6.433	355.76	-1000000	-1000000	-1000000	-1000000	
19.78	2.734	10693	6.468	355.94	-1000000	-1000000	-1000000	-1000000	
19.80	2.755	10694	6.504	356.18	-1000000	-1000000	-1000000	-1000000	
19.82	2.776	10696	6.540	356.27	-1000000	-1000000	-1000000	-1000000	
19.84	2.797	10697	6.576	356.48	-1000000	-1000000	-1000000	-1000000	
19.86	2.818	10698	6.612	356.60	-1000000	-1000000	-1000000	-1000000	
19.88	2.839	10699	6.648	356.75	-1000000	-1000000	-1000000	-1000000	
19.90	2.860	10700	6.685	356.96	-1000000	-1000000	-1000000	-1000000	
19.92	2.881	10700	6.721	357.16	-1000000	-1000000	-1000000	-1000000	
19.94	2.902	10700	6.758	357.31	-1000000	-1000000	-1000000	-1000000	
19.96	2.923	10700	6.794	357.25	-1000000	-1000000	-1000000	-1000000	
19.98	2.944	10700	6.831	357.22	-1000000	-1000000	-1000000	-1000000	
20.00	2.966	10700	6.868	357.34	-1000000	-1000000	-1000000	-1000000	
20.02	2.987	10699	6.905	357.49	-1000000	-1000000	-1000000	-1000000	
20.04	3.008	10699	6.943	357.56	-1000000	-1000000	-1000000	-1000000	
20.06	3.029	10698	6.980	357.52	-1000000	-1000000	-1000000	-1000000	
20.08	3.050	10696	7.017	357.46	-1000000	-1000000	-1000000	-1000000	
20.10	3.071	10695	7.055	357.53	-1000000	-1000000	-1000000	-1000000	
20.12	3.092	10693	7.093	357.83	-1000000	-1000000	-1000000	-1000000	
20.14	3.113	10691	7.130	358.15	-1000000	-1000000	-1000000	-1000000	
20.16	3.134	10689	7.168	358.07	-1000000	-1000000	-1000000	-1000000	
20.18	3.155	10687	7.206	358.26	-1000000	-1000000	-1000000	-1000000	
20.20	3.176	10684	7.244	358.48	-1000000	-1000000	-1000000	-1000000	
20.22	3.197	10681	7.283	358.48	-1000000	-1000000	-1000000	-1000000	
20.24	3.217	10678	7.321	358.55	-1000000	-1000000	-1000000	-1000000	
20.26	3.238	10674	7.360	358.65	-1000000	-1000000	-1000000	-1000000	
20.28	3.258	10670	7.398	358.82	-1000000	-1000000	-1000000	-1000000	
20.30	3.278	10665	7.437	359.11	-1000000	-1000000	-1000000	-1000000	
20.32	3.297	10660	7.476	359.39	-1000000	-1000000	-1000000	-1000000	
20.34	3.317	10655	7.515	359.22	-1000000	-1000000	-1000000	-1000000	
20.36	3.336	10649	7.554	358.95	-1000000	-1000000	-1000000	-1000000	
20.38	3.354	10642	7.593	358.90	-1000000	-1000000	-1000000	-1000000	
20.40	3.372	10635	7.633	359.13	-1000000	-1000000	-1000000	-1000000	
20.42	3.390	10627	7.672	359.18	-1000000	-1000000	-1000000	-1000000	
20.44	3.407	10618	7.711	359.34	-1000000	-1000000	-1000000	-1000000	
20.46	3.423	10609	7.751	359.69	-1000000	-1000000	-1000000	-1000000	
20.48	3.439	10598	7.791	359.77	-1000000	-1000000	-1000000	-1000000	
20.50	3.450	10581	7.831	359.73	-1000000	-1000000	-1000000	-1000000	
20.52	3.458	10542	7.871	359.88	-1000000	-1000000	-1000000	-1000000	
20.54	3.463	10475	7.908	359.98	-1000000	-1000000	-1000000	-1000000	
20.56	3.467	10384	7.934	359.94	-1000000	-1000000	-1000000	-1000000	
20.58	3.469	10276	7.946	359.96	-1000000	-1000000	-1000000	-1000000	
20.60	3.471	10161	7.951	359.97	-1000000	-1000000	-1000000	-1000000	
20.62	3.473	10055	7.953	359.83	-1000000	-1000000	-1000000	-1000000	
20.64	3.474	9968.5	7.954	359.63	-1000000	-1000000	-1000000	-1000000	
20.66	3.475	9897.2	7.955	359.60	-1000000	-1000000	-1000000	-1000000	
20.68	3.476	9836.9	7.955	359.49	-1000000	-1000000	-1000000	-1000000	
20.70	3.477	9784.9	7.955	359.62	-1000000	-1000000	-1000000	-1000000	
20.72	3.478	9739.2	7.955	359.61	-1000000	-1000000	-1000000	-1000000	
20.74	3.479	9699.2	7.955	359.45	-1000000	-1000000	-1000000	-1000000	
20.76	3.480	9664.7	7.955	359.44	-1000000	-1000000	-1000000	-1000000	
20.78	3.480	9633.8	7.955	359.40	-1000000	-1000000	-1000000	-1000000	
20.80	3.481	9606.0	7.955	359.35	-1000000	-1000000	-1000000	-1000000	
20.82	3.481	9580.8	7.955	359.30	-1000000	-1000000	-1000000	-1000000	
20.84	3.482	9558.2	7.955	359.32	-1000000	-1000000	-1000000	-1000000	
20.86	3.482	9537.4	7.955	359.25	-1000000	-1000000	-1000000	-1000000	
20.88	3.483	9518.4	7.955	359.10	-1000000	-1000000	-1000000	-1000000	
20.90	3.483	9501.1	7.955	359.11	-1000000	-1000000	-1000000	-1000000	
20.92	3.483	9484.4	7.955	359.04	-1000000	-1000000	-1000000	-1000000	
20.94	3.484	9468.8	7.955	358.87	-1000000	-1000000	-1000000	-1000000	
20.96	3.484	9454.5	7.955	358.81	-1000000	-1000000	-1000000	-1000000	
20.98	3.484	9440.9	7.955	358.77	-1000000	-1000000	-1000000	-1000000	
21.00	3.485	9428.0	7.955	358.65	-1000000	-1000000	-1000000	-1000000	
21.02	3.485	9415.8	7.955	358.77	-1000000	-1000000	-1000000	-1000000	
21.04	3.485	9404.7	7.955	358.81	-1000000	-1000000	-1000000	-1000000	
21.06	3.486	9393.8	7.955	358.67	-1000000	-1000000	-1000000	-1000000	
21.08	3.486	9383.6	7.956	358.53	-1000000	-1000000	-1000000	-1000000	
21.10	3.486	9373.8	7.955	358.53	-1000000	-1000000	-1000000	-1000000	
21.12	3.486	9364.5	7.955	358.41	-1000000	-1000000	-1000000	-1000000	
21.14	3.487	9355.8	7.955	358.44	-1000000	-1000000	-1000000	-1000000	
21.16	3.487	9347.3	7.955	358.51	-1000000	-1000000	-1000000	-1000000	
21.18	3.487	9338.9	7.955	358.49	-1000000	-1000000	-1000000	-1000000	
21.20	3.487	9331.3	7.955	358.29	-1000000	-1000000	-1000000	-1000000	
21.22	3.487	9323.9	7.955	358.28	-1000000	-1000000	-1000000	-1000000	
21.24	3.488	9316.5	7.955	358.30	-1000000	-1000000	-1000000	-1000000	
21.26	3.488	9309.5	7.955	358.18	-1000000	-1000000	-1000000	-1000000	
21.28	3.488	9303.2	7.955	358.02	-1000000	-1000000	-1000000	-1000000	
21.30	3.488	9297.2	7.955	357.84	-1000000	-1000000	-1000000	-1000000	
21.32	3.488	9291.0	7.955	357.62	-1000000	-1000000	-1000000	-1000000	
21.34	3.488	9284.5	7.955	357.42	-1000000	-1000000	-1000000	-1000000	
21.36	3.489	9278.4	7.955	357.44	-1000000	-1000000	-1000000	-1000000	
21.38	3.489	9272.4	7.955	357.47	-1000000	-1000000	-1000000	-1000000	
21.40	3.489	9266.8	7.955	357.56	-1000000	-1000000	-1000000	-1000000	
21.42	3.489	9261.2	7.955	357.77	-1000000	-1000000	-1000000	-1000000	
21.44	3.489	9255.7	7.955	357.82	-1000000	-1000000	-1000000	-1000000	
21.46	3.489	9250.4	7.955	357.72	-1000000	-1000000	-1000000	-1000000	
21.48	3.489	9244.9	7.955	357.56	-1000000	-1000000	-1000000	-1000000	
21.50	3.489	9239.4	7.954	357.48	-1000000	-1000000	-1000000	-1000000	
21.52	3.490	9234.0	7.954	357.63	-1000000	-1000000	-1000000	-1000000	
21.54	3.490	9228.9	7.954	357.61	-1000000	-1000000	-1000000	-1000000	
21.56	3.490	9223.7	7.954	357.33	-1000000	-1000000	-1000000	-1000000	
21.58	3.490	9218.8	7.954	357.29	-1000000	-1000000	-1000000	-1000000	
21.60	3.490	9213.9	7.953	357.15	-1000000	-1000000	-1000000	-1000000	
21.62	3.490	9208.7	7.953	356.95	-1000000	-1000000	-1000000	-1000000	
21.64	3.490	9203.7	7.953	356.75	-1000000	-1000000	-1000000	-1000000	
21.66	3.490	9198.8	7.953	356.62	-1000000	-1000000	-1000000	-1000000	
21.68	3.490	9193.8	7.953	356.54	-1000000	-1000000	-1000000	-1000000	
21.70	3.491	9188.7	7.953	356.49	-1000000	-1000000	-1000000	-1000000	
21.72	3.491	9183.2	7.953	356.47	-1000000	-1000000	-1000000	-1000000	
21.74	3.491	9177.8	7.952	356.32	-1000000	-1000000	-1000000	-1000000	
21.76	3.491	9172.5	7.952	356.23	-1000000	-1000000	-1000000	-1000000	
21.78	3.491	9167.3	7.952	356.31	-1000000	-1000000	-1000000	-1000000	
21.80	3.491	9161.7	7.952	356.42	-1000000	-1000000	-1000000	-1000000	
21.82	3.491	9156.1	7.951	356.32	-1000000	-1000000	-1000000	-1000000	
21.84	3.491	9150.3	7.951	356.26	-1000000	-1000000	-1000000	-1000000	
21.86	3.491	9144.3	7.951	356.35	-1000000	-1000000	-1000000	-1000000	
21.88	3.491	9138.2	7.951	356.37	-1000000	-1000000	-1000000	-1000000	
21.90	3.491	9132.4	7.950	356.25	-1000000	-1000000	-1000000	-1000000	
21.92	3.491	9126.6	7.950	356.35	-1000000	-1000000	-1000000	-1000000	
21.94	3.491	9120.5	7.950	356.41	-1000000	-1000000	-1000000	-1000000	
21.96	3.491	9114.4	7.950	356.26	-1000000	-1000000	-1000000	-1000000	
21.98	3.491	9108.1	7.949	356.07	-1000000	-1000000	-1000000	-1000000	
22.00	3.491	9101.4	7.949	355.70	-1000000	-1000000	-1000000	-1000000	
22.02	3.491	9094.8	7.949	355.35	-1000000	-1000000	-1000000	-1000000	
22.04	3.491	9088.1	7.948	355.31	-1000000	-1000000	-1000000	-1000000	
22.06	3.491	9081.3	7.948	355.40	-1000000	-1000000	-1000000	-1000000	
22.08	3.491	9074.6	7.948	355.49	-1000000	-1000000	-1000000	-1000000	
22.10	3.491	9067.8	7.947	355.47	-1000000	-1000000	-1000000	-1000000	
22.12	3.491	9060.3	7.947	355.47	-1000000	-1000000	-1000000	-1000000	
22.14	3.491	9052.9	7.947	355.27	-1000000	-1000000	-1000000	-1000000	
22.16	3.491	9045.3	7.946	355.01	-1000000	-1000000	-1000000	-1000000	
22.18	3.491	9037.5	7.946	355.04	-1000000	-1000000	-1000000	-1000000	
22.20	3.491	9029.8	7.946	355.09	-1000000	-1000000	-1000000	-1000000	
22.22	3.491	9022.4	7.945	355.09	-1000000	-1000000	-1000000	-1000000	
22.24	3.491	9014.8	7.945	355.24	-1000000	-1000000	-1000000	-1000000	
22.26	3.491	9006.9	7.945	355.24	-1000000	-1000000	-1000000	-1000000	
22.28	3.491	8999.0	7.944	355.04	-1000000	-1000000	-1000000	-1000000	
22.30	3.491	8991.0	7.944	355.02	-1000000	-1000000	-1000000	-1000000	
22.32	3.491	8982.7	7.944	355.02	-1000000	-1000000	-1000000	-1000000	
22.34	3.491	8974.4	7.943	354.78	-1000000	-1000000	-1000000	-1000000	
22.36	3.491	8965.9	7.942	354.69	-1000000	-1000000	-1000000	-1000000	
22.38	3.491	8957.4	7.942	354.53	-1000000	-1000000	-1000000	-1000000	
22.40	3.491	8948.8	7.942	354.22	-1000000	-1000000	-1000000	-1000000	
22.42	3.491	8940.0	7.941	354.28	-1000000	-1000000	-1000000	-1000000	
22.44	3.491	8931.1	7.941	354.51	-1000000	-1000000	-1000000	-1000000	
22.46	3.491	8922.2	7.940	354.54	-1000000	-1000000	-1000000	-1000000	
22.48	3.491	8913.0	7.940	354.40	-1000000	-1000000	-1000000	-1000000	
22.50	3.491	8903.8	7.939	354.44	-1000000	-1000000	-1000000	-1000000	
22.52	3.491	8894.4	7.939	354.65	-1000000	-1000000	-1000000	-1000000	
22.54	3.491	8885.0	7.939	354.72	-1000000	-1000000	-1000000	-1000000	
22.56	3.491	8875.7	7.938	354.53	-1000000	-1000000	-1000000	-1000000	
22.58	3.491	8865.9	7.938	354.23	-1000000	-1000000	-1000000	-1000000	
22.60	3.491	8855.6	7.937	354.20	-1000000	-1000000	-1000000	-1000000	
22.62	3.491	8845.2	7.937	354.20	-1000000	-1000000	-1000000	-1000000	
22.64	3.490	8834.6	7.936	354.00	-1000000	-1000000	-1000000	-1000000	
22.66	3.490	8824.1	7.936	353.94	-1000000	-1000000	-1000000	-1000000	
22.68	3.490	8814.0	7.935	354.47	-1000000	-1000000	-1000000	-1000000	
22.70	3.490	8804.1	7.935	354.13	-1000000	-1000000	-1000000	-1000000	
22.72	3.490	8793.6	7.934	353.50	-1000000	-1000000	-1000000	-1000000	
22.74	3.490	8782.6	7.934	353.48	-1000000	-1000000	-1000000	-1000000	
22.76	3.490	8771.3	7.933	353.60	-1000000	-1000000	-1000000	-1000000	
22.78	3.490	8760.1	7.932	353.55	-1000000	-1000000	-1000000	-1000000	
22.80	3.490	8748.7	7.932	353.51	-1000000	-1000000	-1000000	-1000000	
22.82	3.490	8737.1	7.931	353.60	-1000000	-1000000	-1000000	-1000000	
22.84	3.490	8725.6	7.931	353.50	-1000000	-1000000	-1000000	-1000000	
22.86	3.490	8714.1	7.930	353.42	-1000000	-1000000	-1000000	-1000000	
22.88	3.490	8702.5	7.930	353.50	-1000000	-1000000	-1000000	-1000000	
22.90	3.489	8691.3	7.929	353.53	-1000000	-1000000	-1000000	-1000000	
22.92	3.489	8680.1	7.928	353.37	-1000000	-1000000	-1000000	-1000000	
22.94	3.489	8668.4	7.928	353.33	-1000000	-1000000	-1000000	-1000000	
22.96	3.489	8656.1	7.927	353.28	-1000000	-1000000	-1000000	-1000000	
22.98	3.489	8643.6	7.927	352.99	-1000000	-1000000	-1000000	-1000000	
23.00	3.489	8631.0	7.926	352.89	-1000000	-1000000	-1000000	-1000000	
23.02	3.489	8618.4	7.925	352.91	-1000000	-1000000	-1000000	-1000000	
23.04	3.489	8605.4	7.925	352.71	-1000000	-1000000	-1000000	-1000000	
23.06	3.489	8592.0	7.924	352.42	-1000000	-1000000	-1000000	-1000000	
23.08	3.489	8579.2	7.923	352.24	-1000000	-1000000	-1000000	-1000000	
23.10	3.488	8566.6	7.923	352.31	-1000000	-1000000	-1000000	-1000000	
23.12	3.488	8553.6	7.922	352.40	-1000000	-1000000	-1000000	-1000000	
23.14	3.488	8540.2	7.921	352.36	-1000000	-1000000	-1000000	-1000000	
23.16	3.488	8526.8	7.921	352.31	-1000000	-1000000	-1000000	-1000000	
23.18	3.488	8513.3	7.920	352.57	-1000000	-1000000	-1000000	-1000000	
23.20	3.488	8499.7	7.919	352.80	-1000000	-1000000	-1000000	-1000000	
23.22	3.488	8485.8	7.919	352.90	-1000000	-1000000	-1000000	-1000000	
23.24	3.488	8471.7	7.918	352.77	-1000000	-1000000	-1000000	-1000000	
23.26	3.488	8457.6	7.917	352.62	-1000000	-1000000	-1000000	-1000000	
23.28	3.487	8443.2	7.916	352.41	-1000000	-1000000	-1000000	-1000000	
23.30	3.487	8428.6	7.916	351.98	-1000000	-1000000	-1000000	-1000000	
23.32	3.487	8414.1	7.915	351.91	-1000000	-1000000	-1000000	-1000000	
23.34	3.487	8399.6	7.914	352.00	-1000000	-1000000	-1000000	-1000000	
23.36	3.487	8385.0	7.914	352.15	-1000000	-1000000	-1000000	-1000000	
23.38	3.487	8370.2	7.913	352.14	-1000000	-1000000	-1000000	-1000000	
23.40	3.487	8355.3	7.912	351.80	-1000000	-1000000	-1000000	-1000000	
23.42	3.487	8340.3	7.911	351.53	-1000000	-1000000	-1000000	-1000000	
23.44	3.486	8325.5	7.910	351.51	-1000000	-1000000	-1000000	-1000000	
23.46	3.486	8310.3	7.910	351.66	-1000000	-1000000	-1000000	-1000000	
23.48	3.486	8294.7	7.909	351.78	-1000000	-1000000	-1000000	-1000000	
23.50	3.486	8278.8	7.908	351.57	-1000000	-1000000	-1000000	-1000000	
23.52	3.486	8263.0	7.907	351.30	-1000000	-1000000	-1000000	-1000000	
23.54	3.486	8247.0	7.906	351.42	-1000000	-1000000	-1000000	-1000000	
23.56	3.485	8230.8	7.906	351.54	-1000000	-1000000	-1000000	-1000000	
23.58	3.485	8214.9	7.905	351.53	-1000000	-1000000	-1000000	-1000000	
23.60	3.485	8198.7	7.904	351.48	-1000000	-1000000	-1000000	-1000000	
23.62	3.485	8182.2	7.903	351.17	-1000000	-1000000	-1000000	-1000000	
23.64	3.485	8165.6	7.902	350.98	-1000000	-1000000	-1000000	-1000000	
23.66	3.485	8148.8	7.902	351.10	-1000000	-1000000	-1000000	-1000000	
23.68	3.485	8131.9	7.901	350.91	-1000000	-1000000	-1000000	-1000000	
23.70	3.484	8115.1	7.900	350.78	-1000000	-1000000	-1000000	-1000000	
23.72	3.484	8098.3	7.899	350.71	-1000000	-1000000	-1000000	-1000000	
23.74	3.484	8081.6	7.898	350.60	-1000000	-1000000	-1000000	-1000000	
23.76	3.484	8064.5	7.897	350.73	-1000000	-1000000	-1000000	-1000000	
23.78	3.484	8046.9	7.896	350.76	-1000000	-1000000	-1000000	-1000000	
23.80	3.484	8029.3	7.895	350.64	-1000000	-1000000	-1000000	-1000000	
23.82	3.483	8011.7	7.894	350.60	-1000000	-1000000	-1000000	-1000000	
23.84	3.483	7994.1	7.894	350.81	-1000000	-1000000	-1000000	-1000000	
23.86	3.483	7976.6	7.893	350.85	-1000000	-1000000	-1000000	-1000000	
23.88	3.483	7958.9	7.892	350.62	-1000000	-1000000	-1000000	-1000000	
23.90	3.483	7941.3	7.891	350.41	-1000000	-1000000	-1000000	-1000000	
23.92	3.483	7923.7	7.890	350.31	-1000000	-1000000	-1000000	-1000000	
23.94	3.482	7905.9	7.889	350.24	-1000000	-1000000	-1000000	-1000000	
23.96	3.482	7887.8	7.888	350.20	-1000000	-1000000	-1000000	-1000000	
23.98	3.482	7869.3	7.887	350.11	-1000000	-1000000	-1000000	-1000000	
24.00	3.482	7850.6	7.886	350.02	-1000000	-1000000	-1000000	-1000000	
24.02	3.482	7831.8	7.885	349.87	-1000000	-1000000	-1000000	-1000000	
24.04	3.482	7813.2	7.884	349.57	-1000000	-1000000	-1000000	-1000000	
24.06	3.481	7794.7	7.883	349.65	-1000000	-1000000	-1000000	-1000000	
24.08	3.481	7776.0	7.882	349.75	-1000000	-1000000	-1000000	-1000000	
24.10	3.481	7757.1	7.881	349.62	-1000000	-1000000	-1000000	-1000000	
24.12	3.481	7737.9	7.880	349.54	-1000000	-1000000	-1000000	-1000000	
24.14	3.481	7718.6	7.879	349.46	-1000000	-1000000	-1000000	-1000000	
24.16	3.480	7699.4	7.878	349.68	-1000000	-1000000	-1000000	-1000000	
24.18	3.480	7679.8	7.877	349.76	-1000000	-1000000	-1000000	-1000000	
24.20	3.480	7659.9	7.876	349.78	-1000000	-1000000	-1000000	-1000000	
24.22	3.480	7639.8	7.875	349.72	-1000000	-1000000	-1000000	-1000000	
24.24	3.480	7619.5	7.874	349.65	-1000000	-1000000	-1000000	-1000000	
24.26	3.480	7599.1	7.873	349.50	-1000000	-1000000	-1000000	-1000000	
24.28	3.479	7578.2	7.872	349.22	-1000000	-1000000	-1000000	-1000000	
24.30	3.479	7556.7	7.871	349.01	-1000000	-1000000	-1000000	-1000000	
24.32	3.479	7535.0	7.870	349.08	-1000000	-1000000	-1000000	-1000000	
24.34	3.479	7513.2	7.869	349.18	-1000000	-1000000	-1000000	-1000000	
24.36	3.479	7490.9	7.868	349.30	-1000000	-1000000	-1000000	-1000000	
24.38	3.478	7467.8	7.867	349.26	-1000000	-1000000	-1000000	-1000000	
24.40	3.478	7443.7	7.865	349.54	-1000000	-1000000	-1000000	-1000000	
24.42	3.478	7418.4	7.864	349.69	-1000000	-1000000	-1000000	-1000000	
24.44	3.478	7391.3	7.863	349.92	-1000000	-1000000	-1000000	-1000000	
24.46	3.478	7363.4	7.862	350.18	-1000000	-1000000	-1000000	-1000000	
24.48	3.478	7335.2	7.861	350.34	-1000000	-1000000	-1000000	-1000000	
24.50	3.477	7307.1	7.860	350.48	-1000000	-1000000	-1000000	-1000000	
24.52	3.477	7280.1	7.859	350.71	-1000000	-1000000	-1000000	-1000000	
24.54	3.477	7254.1	7.858	350.80	-1000000	-1000000	-1000000	-1000000	
24.56	3.477	7229.0	7.856	350.88	-1000000	-1000000	-1000000	-1000000	
24.58	3.477	7204.5	7.855	350.86	-1000000	-1000000	-1000000	-1000000	
24.60	3.476	7180.0	7.854	350.79	-1000000	-1000000	-1000000	-1000000	
24.62	3.476	7156.1	7.853	350.65	-1000000	-1000000	-1000000	-1000000	
24.64	3.476	7133.4	7.852	350.54	-1000000	-1000000	-1000000	-1000000	
24.66	3.476	7110.7	7.851	350.49	-1000000	-1000000	-1000000	-1000000	
24.68	3.476	7087.3	7.849	350.52	-1000000	-1000000	-1000000	-1000000	
24.70	3.475	7063.8	7.848	350.46	-1000000	-1000000	-1000000	-1000000	
24.72	3.475	7040.4	7.847	350.36	-1000000	-1000000	-1000000	-1000000	
24.74	3.475	7017.7	7.846	350.25	-1000000	-1000000	-1000000	-1000000	
24.76	3.475	6994.9	7.845	350.41	-1000000	-1000000	-1000000	-1000000	
24.78	3.474	6971.6	7.843	350.58	-1000000	-1000000	-1000000	-1000000	
24.80	3.474	6948.0	7.842	350.42	-1000000	-1000000	-1000000	-1000000	
24.82	3.474	6924.3	7.841	350.60	-1000000	-1000000	-1000000	-1000000	
24.84	3.474	6900.8	7.840	350.57	-1000000	-1000000	-1000000	-1000000	
24.86	3.473	6877.0	7.838	350.23	-1000000	-1000000	-1000000	-1000000	
24.88	3.473	6852.8	7.837	350.15	-1000000	-1000000	-1000000	-1000000	
24.90	3.473	6828.8	7.836	350.25	-1000000	-1000000	-1000000	-1000000	
24.92	3.473	6804.8	7.835	350.31	-1000000	-1000000	-1000000	-1000000	
24.94	3.473	6780.5	7.834	350.44	-1000000	-1000000	-1000000	-1000000	
24.96	3.472	6756.0	7.832	350.55	-1000000	-1000000	-1000000	-1000000	
24.98	3.472	6731.7	7.831	350.43	-1000000	-1000000	-1000000	-1000000	
25.00	3.472	6707.4	7.830	350.09	-1000000	-1000000	-1000000	-1000000	
25.02	3.472	6683.1	7.828	349.81	-1000000	-1000000	-1000000	-1000000	
25.04	3.471	6659.0	7.827	349.52	-1000000	-1000000	-1000000	-1000000	
25.06	3.471	6634.9	7.826	349.36	-1000000	-1000000	-1000000	-1000000	
25.08	3.471	6610.5	7.824	349.48	-1000000	-1000000	-1000000	-1000000	
25.10	3.471	6585.8	7.823	349.69	-1000000	-1000000	-1000000	-1000000	
25.12	3.470	6561.1	7.822	349.61	-1000000	-1000000	-1000000	-1000000	
25.14	3.470	6536.7	7.820	349.57	-1000000	-1000000	-1000000	-1000000	
25.16	3.470	6511.8	7.819	349.69	-1000000	-1000000	-1000000	-1000000	
25.18	3.470	6486.4	7.818	349.64	-1000000	-1000000	-1000000	-1000000	
25.20	3.469	6461.0	7.816	349.48	-1000000	-1000000	-1000000	-1000000	
25.22	3.469	6435.2	7.815	349.44	-1000000	-1000000	-1000000	-1000000	
25.24	3.469	6408.8	7.813	349.57	-1000000	-1000000	-1000000	-1000000	
25.26	3.469	6382.3	7.812	349.60	-1000000	-1000000	-1000000	-1000000	
25.28	3.468	6355.4	7.811	349.39	-1000000	-1000000	-1000000	-1000000	
25.30	3.468	6328.2	7.810	349.37	-1000000	-1000000	-1000000	-1000000	
25.32	3.468	6300.1	7.808	349.44	-1000000	-1000000	-1000000	-1000000	
25.34	3.468	6271.5	7.807	349.47	-1000000	-1000000	-1000000	-1000000	
25.36	3.467	6242.3	7.805	349.53	-1000000	-1000000	-1000000	-1000000	
25.38	3.467	6212.3	7.804	349.55	-1000000	-1000000	-1000000	-1000000	
25.40	3.467	6182.1	7.802	349.55	-1000000	-1000000	-1000000	-1000000	
25.42	3.467	6152.0	7.801	349.73	-1000000	-1000000	-1000000	-1000000	
25.44	3.466	6121.9	7.799	350.05	-1000000	-1000000	-1000000	-1000000	
25.46	3.466	6091.6	7.798	350.20	-1000000	-1000000	-1000000	-1000000	
25.48	3.466	6061.2	7.797	350.46	-1000000	-1000000	-1000000	-1000000	
25.50	3.466	6030.8	7.795	350.81	-1000000	-1000000	-1000000	-1000000	
25.52	3.465	6001.2	7.793	350.76	-1000000	-1000000	-1000000	-1000000	
25.54	3.465	5972.1	7.792	350.63	-1000000	-1000000	-1000000	-1000000	
25.56	3.465	5943.3	7.791	350.45	-1000000	-1000000	-1000000	-1000000	
25.58	3.465	5914.8	7.789	350.32	-1000000	-1000000	-1000000	-1000000	
25.60	3.464	5886.8	7.788	350.40	-1000000	-1000000	-1000000	-1000000	
25.62	3.464	5858.9	7.786	350.26	-1000000	-1000000	-1000000	-1000000	
25.64	3.464	5830.9	7.785	350.12	-1000000	-1000000	-1000000	-1000000	
25.66	3.464	5802.9	7.783	350.12	-1000000	-1000000	-1000000	-1000000	
25.68	3.463	5775.1	7.782	350.10	-1000000	-1000000	-1000000	-1000000	
25.70	3.463	5747.0	7.780	350.20	-1000000	-1000000	-1000000	-1000000	
25.72	3.463	5719.2	7.779	350.27	-1000000	-1000000	-1000000	-1000000	
25.74	3.462	5691.4	7.777	350.38	-1000000	-1000000	-1000000	-1000000	
25.76	3.462	5663.1	7.776	350.41	-1000000	-1000000	-1000000	-1000000	
25.78	3.462	5634.7	7.774	350.35	-1000000	-1000000	-1000000	-1000000	
25.80	3.462	5606.0	7.773	350.35	-1000000	-1000000	-1000000	-1000000	
25.82	3.461	5577.0	7.771	350.33	-1000000	-1000000	-1000000	-1000000	
25.84	3.461	5548.3	7.769	350.25	-1000000	-1000000	-1000000	-1000000	
25.86	3.461	5519.3	7.768	350.11	-1000000	-1000000	-1000000	-1000000	
25.88	3.460	5490.5	7.766	350.10	-1000000	-1000000	-1000000	-1000000	
25.90	3.460	5461.6	7.764	350.31	-1000000	-1000000	-1000000	-1000000	
25.92	3.460	5432.8	7.763	350.45	-1000000	-1000000	-1000000	-1000000	
25.94	3.459	5404.1	7.761	350.30	-1000000	-1000000	-1000000	-1000000	
25.96	3.459	5375.3	7.760	349.96	-1000000	-1000000	-1000000	-1000000	
25.98	3.459	5346.4	7.758	349.73	-1000000	-1000000	-1000000	-1000000	
26.00	3.459	5317.5	7.757	349.47	-1000000	-1000000	-1000000	-1000000	
26.02	3.458	5289.1	7.755	349.20	-1000000	-1000000	-1000000	-1000000	
26.04	3.458	5260.4	7.753	349.21	-1000000	-1000000	-1000000	-1000000	
26.06	3.458	5231.1	7.752	349.26	-1000000	-1000000	-1000000	-1000000	
26.08	3.457	5201.5	7.750	349.23	-1000000	-1000000	-1000000	-1000000	
26.10	3.457	5171.6	7.748	349.10	-1000000	-1000000	-1000000	-1000000	
26.12	3.457	5141.7	7.747	349.03	-1000000	-1000000	-1000000	-1000000	
26.14	3.456	5111.6	7.745	349.15	-1000000	-1000000	-1000000	-1000000	
26.16	3.456	5081.3	7.743	349.25	-1000000	-1000000	-1000000	-1000000	
26.18	3.456	5051.2	7.742	349.43	-1000000	-1000000	-1000000	-1000000	
26.20	3.455	5021.0	7.740	349.42	-1000000	-1000000	-1000000	-1000000	
26.22	3.455	4990.2	7.738	349.42	-1000000	-1000000	-1000000	-1000000	
26.24	3.455	4959.1	7.737	349.51	-1000000	-1000000	-1000000	-1000000	
26.26	3.454	4927.8	7.735	349.38	-1000000	-1000000	-1000000	-1000000	
26.28	3.454	4895.9	7.733	349.26	-1000000	-1000000	-1000000	-1000000	
26.30	3.454	4863.5	7.731	349.25	-1000000	-1000000	-1000000	-1000000	
26.32	3.454	4830.7	7.729	349.12	-1000000	-1000000	-1000000	-1000000	
26.34	3.453	4797.3	7.728	349.01	-1000000	-1000000	-1000000	-1000000	
26.36	3.453	4762.7	7.726	348.98	-1000000	-1000000	-1000000	-1000000	
26.38	3.453	4726.6	7.724	348.94	-1000000	-1000000	-1000000	-1000000	
26.40	3.452	4689.5	7.722	349.24	-1000000	-1000000	-1000000	-1000000	
26.42	3.452	4651.3	7.721	349.67	-1000000	-1000000	-1000000	-1000000	
26.44	3.452	4612.0	7.719	350.09	-1000000	-1000000	-1000000	-1000000	
26.46	3.452	4572.7	7.717	350.54	-1000000	-1000000	-1000000	-1000000	
26.48	3.451	4534.2	7.716	350.84	-1000000	-1000000	-1000000	-1000000	
26.50	3.451	4496.5	7.714	351.10	-1000000	-1000000	-1000000	-1000000	
26.52	3.451	4459.5	7.712	351.29	-1000000	-1000000	-1000000	-1000000	
26.54	3.450	4423.5	7.710	351.34	-1000000	-1000000	-1000000	-1000000	
26.56	3.450	4388.6	7.708	351.28	-1000000	-1000000	-1000000	-1000000	
26.58	3.450	4354.4	7.706	351.26	-1000000	-1000000	-1000000	-1000000	
26.60	3.449	4320.6	7.705	351.56	-1000000	-1000000	-1000000	-1000000	
26.62	3.449	4286.9	7.703	351.51	-1000000	-1000000	-1000000	-1000000	
26.64	3.448	4253.4	7.701	351.31	-1000000	-1000000	-1000000	-1000000	
26.66	3.448	4219.8	7.699	351.46	-1000000	-1000000	-1000000	-1000000	
26.68	3.448	4186.3	7.697	351.40	-1000000	-1000000	-1000000	-1000000	
26.70	3.447	4152.8	7.695	351.25	-1000000	-1000000	-1000000	-1000000	
26.72	3.447	4119.3	7.694	351.36	-1000000	-1000000	-1000000	-1000000	
26.74	3.447	4085.7	7.692	351.65	-1000000	-1000000	-1000000	-1000000	
26.76	3.446	4052.6	7.690	351.67	-1000000	-1000000	-1000000	-1000000	
26.78	3.446	4020.0	7.688	351.58	-1000000	-1000000	-1000000	-1000000	
26.80	3.446	3986.9	7.686	351.54	-1000000	-1000000	-1000000	-1000000	
26.82	3.445	3953.2	7.684	351.44	-1000000	-1000000	-1000000	-1000000	
26.84	3.445	3919.4	7.682	351.49	-1000000	-1000000	-1000000	-1000000	
26.86	3.444	3885.6	7.680	351.38	-1000000	-1000000	-1000000	-1000000	
26.88	3.444	3851.8	7.678	350.95	-1000000	-1000000	-1000000	-1000000	
26.90	3.444	3818.3	7.676	350.75	-1000000	-1000000	-1000000	-1000000	
26.92	3.443	3784.2	7.674	350.73	-1000000	-1000000	-1000000	-1000000	
26.94	3.443	3750.3	7.673	350.62	-1000000	-1000000	-1000000	-1000000	
26.96	3.442	3716.7	7.671	350.51	-1000000	-1000000	-1000000	-1000000	
26.98	3.442	3682.9	7.669	350.37	-1000000	-1000000	-1000000	-1000000	
27.00	3.442	3648.3	7.667	350.29	-1000000	-1000000	-1000000	-1000000	
27.02	3.441	3613.3	7.665	350.25	-1000000	-1000000	-1000000	-1000000	
27.04	3.441	3578.5	7.663	350.54	-1000000	-1000000	-1000000	-1000000	
27.06	3.441	3543.8	7.661	350.70	-1000000	-1000000	-1000000	-1000000	
27.08	3.440	3509.1	7.659	350.73	-1000000	-1000000	-1000000	-1000000	
27.10	3.440	3474.4	7.657	350.64	-1000000	-1000000	-1000000	-1000000	
27.12	3.439	3439.9	7.655	350.51	-1000000	-1000000	-1000000	-1000000	
27.14	3.439	3405.6	7.653	350.44	-1000000	-1000000	-1000000	-1000000	
27.16	3.439	3370.8	7.651	350.35	-1000000	-1000000	-1000000	-1000000	
27.18	3.438	3336.0	7.649	350.10	-1000000	-1000000	-1000000	-1000000	
27.20	3.438	3301.3	7.647	350.04	-1000000	-1000000	-1000000	-1000000	
27.22	3.437	3266.4	7.645	350.00	-1000000	-1000000	-1000000	-1000000	
27.24	3.437	3231.0	7.643	349.82	-1000000	-1000000	-1000000	-1000000	
27.26	3.437	3195.4	7.640	349.47	-1000000	-1000000	-1000000	-1000000	
27.28	3.436	3159.8	7.638	349.40	-1000000	-1000000	-1000000	-1000000	
27.30	3.436	3123.7	7.636	349.60	-1000000	-1000000	-1000000	-1000000	
27.32	3.435	3087.3	7.635	350.05	-1000000	-1000000	-1000000	-1000000	
27.34	3.435	3051.1	7.632	350.11	-1000000	-1000000	-1000000	-1000000	
27.36	3.434	3015.0	7.630	349.72	-1000000	-1000000	-1000000	-1000000	
27.38	3.434	2978.7	7.628	349.74	-1000000	-1000000	-1000000	-1000000	
27.40	3.434	2942.5	7.626	349.89	-1000000	-1000000	-1000000	-1000000	
27.42	3.433	2906.5	7.624	349.81	-1000000	-1000000	-1000000	-1000000	
27.44	3.433	2870.9	7.622	349.58	-1000000	-1000000	-1000000	-1000000	
27.46	3.432	2835.2	7.620	349.56	-1000000	-1000000	-1000000	-1000000	
27.48	3.432	2798.9	7.618	349.40	-1000000	-1000000	-1000000	-1000000	
27.50	3.432	2762.7	7.616	349.16	-1000000	-1000000	-1000000	-1000000	
27.52	3.431	2726.5	7.613	348.88	-1000000	-1000000	-1000000	-1000000	
27.54	3.431	2689.8	7.611	348.78	-1000000	-1000000	-1000000	-1000000	
27.56	3.430	2652.8	7.609	348.75	-1000000	-1000000	-1000000	-1000000	
27.58	3.430	2615.7	7.607	348.74	-1000000	-1000000	-1000000	-1000000	
27.60	3.429	2579.0	7.605	348.74	-1000000	-1000000	-1000000	-1000000	
27.62	3.429	2542.3	7.603	348.59	-1000000	-1000000	-1000000	-1000000	
27.64	3.429	2505.3	7.600	348.65	-1000000	-1000000	-1000000	-1000000	
27.66	3.428	2468.1	7.598	348.79	-1000000	-1000000	-1000000	-1000000	
27.68	3.428	2430.4	7.596	348.88	-1000000	-1000000	-1000000	-1000000	
27.70	3.427	2392.6	7.594	349.05	-1000000	-1000000	-1000000	-1000000	
27.72	3.427	2354.7	7.592	348.95	-1000000	-1000000	-1000000	-1000000	
27.74	3.426	2316.7	7.590	348.96	-1000000	-1000000	-1000000	-1000000	
27.76	3.426	2279.1	7.587	348.84	-1000000	-1000000	-1000000	-1000000	
27.78	3.426	2241.6	7.585	348.69	-1000000	-1000000	-1000000	-1000000	
27.80	3.425	2204.0	7.583	348.59	-1000000	-1000000	-1000000	-1000000	
27.82	3.425	2166.5	7.581	348.67	-1000000	-1000000	-1000000	-1000000	
27.84	3.424	2128.7	7.578	348.65	-1000000	-1000000	-1000000	-1000000	
27.86	3.424	2090.8	7.576	348.39	-1000000	-1000000	-1000000	-1000000	
27.88	3.423	2052.6	7.574	348.12	-1000000	-1000000	-1000000	-1000000	
27.90	3.423	2014.1	7.572	347.87	-1000000	-1000000	-1000000	-1000000	
27.92	3.422	1975.4	7.569	347.65	-1000000	-1000000	-1000000	-1000000	
27.94	3.422	1936.7	7.567	347.74	-1000000	-1000000	-1000000	-1000000	
27.96	3.421	1898.1	7.565	348.06	-1000000	-1000000	-1000000	-1000000	
27.98	3.421	1859.5	7.563	348.20	-1000000	-1000000	-1000000	-1000000	
28.00	3.420	1821.2	7.560	348.05	-1000000	-1000000	-1000000	-1000000	
28.02	3.420	1782.8	7.558	348.03	-1000000	-1000000	-1000000	-1000000	
28.04	3.419	1744.0	7.556	348.05	-1000000	-1000000	-1000000	-1000000	
28.06	3.419	1705.5	7.553	348.22	-1000000	-1000000	-1000000	-1000000	
28.08	3.418	1666.9	7.551	348.22	-1000000	-1000000	-1000000	-1000000	
28.10	3.418	1628.0	7.549	348.16	-1000000	-1000000	-1000000	-1000000	
28.12	3.417	1589.0	7.546	348.07	-1000000	-1000000	-1000000	-1000000	
28.14	3.417	1549.8	7.544	348.05	-1000000	-1000000	-1000000	-1000000	
28.16	3.416	1510.7	7.542	347.99	-1000000	-1000000	-1000000	-1000000	
28.18	3.416	1471.4	7.539	347.98	-1000000	-1000000	-1000000	-1000000	
28.20	3.416	1431.6	7.537	347.88	-1000000	-1000000	-1000000	-1000000	
28.22	3.415	1391.8	7.535	347.75	-1000000	-1000000	-1000000	-1000000	
28.24	3.415	1351.9	7.532	347.61	-1000000	-1000000	-1000000	-1000000	
28.26	3.414	1311.8	7.530	347.62	-1000000	-1000000	-1000000	-1000000	
28.28	3.413	1272.3	7.527	347.70	-1000000	-1000000	-1000000	-1000000	
28.30	3.413	1232.7	7.525	347.74	-1000000	-1000000	-1000000	-1000000	
28.32	3.412	1192.8	7.523	347.82	-1000000	-1000000	-1000000	-1000000	
28.34	3.412	1152.7	7.520	347.80	-1000000	-1000000	-1000000	-1000000	
28.36	3.411	1113.0	7.518	347.59	-1000000	-1000000	-1000000	-1000000	
28.38	3.411	1073.3	7.515	347.40	-1000000	-1000000	-1000000	-1000000	
28.40	3.410	1033.2	7.513	347.35	-1000000	-1000000	-1000000	-1000000	
28.42	3.410	992.60	7.511	347.28	-1000000	-1000000	-1000000	-1000000	
28.44	3.409	951.59	7.508	347.13	-1000000	-1000000	-1000000	-1000000	
28.46	3.409	910.59	7.506	347.07	-1000000	-1000000	-1000000	-1000000	
28.48	3.408	869.21	7.503	347.15	-1000000	-1000000	-1000000	-1000000	
28.50	3.408	827.18	7.501	347.12	-1000000	-1000000	-1000000	-1000000	
28.52	3.407	785.37	7.498	347.02	-1000000	-1000000	-1000000	-1000000	
28.54	3.406	743.56	7.496	347.04	-1000000	-1000000	-1000000	-1000000	
28.56	3.406	701.81	7.493	347.22	-1000000	-1000000	-1000000	-1000000	
28.58	3.405	660.16	7.491	347.33	-1000000	-1000000	-1000000	-1000000	
28.60	3.405	618.33	7.488	347.34	-1000000	-1000000	-1000000	-1000000	
28.62	3.404	576.68	7.486	347.15	-1000000	-1000000	-1000000	-1000000	
28.64	3.404	535.21	7.483	347.14	-1000000	-1000000	-1000000	-1000000	
28.66	3.403	493.67	7.481	347.22	-1000000	-1000000	-1000000	-1000000	
28.68	3.402	451.97	7.478	347.15	-1000000	-1000000	-1000000	-1000000	
28.70	3.402	410.23	7.476	346.98	-1000000	-1000000	-1000000	-1000000	
28.72	3.401	367.92	7.473	346.79	-1000000	-1000000	-1000000	-1000000	
28.74	3.401	325.15	7.471	346.91	-1000000	-1000000	-1000000	-1000000	
28.76	3.400	282.44	7.468	346.79	-1000000	-1000000	-1000000	-1000000	
28.78	3.399	239.66	7.466	346.52	-1000000	-1000000	-1000000	-1000000	
28.80	3.399	197.04	7.463	346.44	-1000000	-1000000	-1000000	-1000000	
28.82	3.398	154.19	7.460	346.59	-1000000	-1000000	-1000000	-1000000	
28.84	3.398	111.48	7.458	346.72	-1000000	-1000000	-1000000	-1000000	
28.86	3.397	69.41	7.455	346.65	-1000000	-1000000	-1000000	-1000000	
28.88	3.397	29.46	7.453	346.50	-1000000	-1000000	-1000000	-1000000	
28.90	3.397	-4.877	7.450	346.42	-1000000	-1000000	-1000000	-1000000	
28.92	3.396	-31.46	7.448	346.27	-1000000	-1000000	-1000000	-1000000	
28.94	3.396	-49.91	7.447	346.25	-1000000	-1000000	-1000000	-1000000	
28.96	3.396	-59.67	7.447	346.49	-1000000	-1000000	-1000000	-1000000	
28.98	3.396	-62.35	7.446	346.53	-1000000	-1000000	-1000000	-1000000	
29.00	3.396	-62.21	7.446	346.47	-1000000	-1000000	-1000000	-1000000	
29.02	3.396	-61.77	7.446	346.24	-1000000	-1000000	-1000000	-1000000	
29.04	3.396	-61.59	7.446	345.93	-1000000	-1000000	-1000000	-1000000	
29.06	3.396	-61.64	7.446	345.94	-1000000	-1000000	-1000000	-1000000	
29.08	3.396	-61.80	7.446	346.08	-1000000	-1000000	-1000000	-1000000	
29.10	3.396	-61.76	7.446	345.89	-1000000	-1000000	-1000000	-1000000	
29.12	3.396	-61.62	7.446	345.53	-1000000	-1000000	-1000000	-1000000	
29.14	3.396	-61.68	7.446	345.56	-1000000	-1000000	-1000000	-1000000	
29.16	3.396	-61.84	7.446	345.64	-1000000	-1000000	-1000000	-1000000	
29.18	3.396	-61.90	7.446	345.78	-1000000	-1000000	-1000000	-1000000	
29.20	3.396	-61.91	7.446	345.71	-1000000	-1000000	-1000000	-1000000	
29.22	3.395	-61.96	7.446	345.59	-1000000	-1000000	-1000000	-1000000	
29.24	3.395	-61.74	7.446	345.76	-1000000	-1000000	-1000000	-1000000	
29.26	3.395	-61.66	7.446	345.75	-1000000	-1000000	-1000000	-1000000	
29.28	3.395	-61.84	7.446	345.69	-1000000	-1000000	-1000000	-1000000	
29.30	3.395	-61.87	7.446	345.70	-1000000	-1000000	-1000000	-1000000	
29.32	3.395	-61.81	7.446	345.49	-1000000	-1000000	-1000000	-1000000	
29.34	3.395	-61.86	7.446	345.22	-1000000	-1000000	-1000000	-1000000	
29.36	3.395	-62.03	7.446	345.21	-1000000	-1000000	-1000000	-1000000	
29.38	3.395	-62.02	7.446	345.13	-1000000	-1000000	-1000000	-1000000	
29.40	3.395	-61.78	7.446	344.83	-1000000	-1000000	-1000000	-1000000	
29.42	3.395	-61.69	7.446	344.54	-1000000	-1000000	-1000000	-1000000	
29.44	3.395	-61.60	7.446	344.68	-1000000	-1000000	-1000000	-1000000	
29.46	3.395	-56.09	7.446	344.51	-1000000	-1000000	-1000000	-1000000	
29.48	3.395	-14.55	7.446	344.36	-1000000	-1000000	-1000000	-1000000	
29.50	3.395	31.15	7.446	344.47	-1000000	-1000000	-1000000	-1000000	
29.52	3.395	51.60	7.446	344.83	-1000000	-1000000	-1000000	-1000000	
29.54	3.395	56.75	7.446	345.21	-1000000	-1000000	-1000000	-1000000	
29.56	3.394	58.74	7.446	345.22	-1000000	-1000000	-1000000	-1000000	
29.58	3.393	61.29	7.446	345.01	-1000000	-1000000	-1000000	-1000000	
29.60	3.393	64.33	7.446	344.87	-1000000	-1000000	-1000000	-1000000	
29.62	3.393	66.99	7.446	344.99	-1000000	-1000000	-1000000	-1000000	
29.64	3.393	69.65	7.446	344.85	-1000000	-1000000	-1000000	-1000000	
29.66	3.393	72.60	7.446	344.71	-1000000	-1000000	-1000000	-1000000	
29.68	3.393	75.20	7.446	344.65	-1000000	-1000000	-1000000	-1000000	
29.70	3.393	78.01	7.446	344.33	-1000000	-1000000	-1000000	-1000000	
29.72	3.392	81.02	7.446	344.01	-1000000	-1000000	-1000000	-1000000	
29.74	3.392	83.87	7.446	344.16	-1000000	-1000000	-1000000	-1000000	
29.76	3.392	86.53	7.446	343.97	-1000000	-1000000	-1000000	-1000000	
29.78	3.392	89.24	7.446	344.00	-1000000	-1000000	-1000000	-1000000	
29.80	3.393	91.83	7.446	344.58	-1000000	-1000000	-1000000	-1000000	
29.82	3.394	94.13	7.446	344.31	-1000000	-1000000	-1000000	-1000000	
29.84	3.394	96.56	7.446	343.68	-1000000	-1000000	-1000000	-1000000	
29.86	3.395	98.93	7.446	343.61	-1000000	-1000000	-1000000	-1000000	
29.88	3.395	101.27	7.446	344.00	-1000000	-1000000	-1000000	-1000000	
29.90	3.395	103.55	7.446	344.24	-1000000	-1000000	-1000000	-1000000	
29.92	3.395	105.80	7.446	344.16	-1000000	-1000000	-1000000	-1000000	
29.94	3.395	108.27	7.446	343.89	-1000000	-1000000	-1000000	-1000000	
29.96	3.394	110.83	7.446	343.71	-1000000	-1000000	-1000000	-1000000	
29.98	3.394	113.19	7.446	343.78	-1000000	-1000000	-1000000	-1000000	
30.00	3.394	115.31	7.446	343.84	-1000000	-1000000	-1000000	-1000000	
30.02	3.394	117.60	7.446	343.69	-1000000	-1000000	-1000000	-1000000	
30.04	3.394	119.83	7.446	343.17	-1000000	-1000000	-1000000	-1000000	
30.06	3.394	121.99	7.446	342.89	-1000000	-1000000	-1000000	-1000000	
30.08	3.394	124.10	7.446	343.15	-1000000	-1000000	-1000000	-1000000	
30.10	3.394	126.12	7.446	343.39	-1000000	-1000000	-1000000	-1000000	
30.12	3.394	128.14	7.446	343.13	-1000000	-1000000	-1000000	-1000000	
30.14	3.394	130.05	7.446	342.85	-1000000	-1000000	-1000000	-1000000	
30.16	3.394	131.97	7.446	342.83	-1000000	-1000000	-1000000	-1000000	
30.18	3.394	133.97	7.446	343.05	-1000000	-1000000	-1000000	-1000000	