Zeit  1 - Standardmessrate [s]	Maytec [mm]	Kraft [N]	Standardwegaufnehmer [mm]	Pyrometer [°C]	Drehwinkel [V]	MX840_0_CH 6 [V]	MX840_0_CH 7 [V]	MX840_0_CH 8 [V]
0	0.03072	136.82	0.8295	300.10	-1000000	-1000000	-1000000	-1000000	
0.02000	0.03073	136.82	0.8295	300.12	-1000000	-1000000	-1000000	-1000000	
0.04000	0.03067	136.77	0.8295	300.14	-1000000	-1000000	-1000000	-1000000	
0.06000	0.03065	136.71	0.8295	300.13	-1000000	-1000000	-1000000	-1000000	
0.08000	0.03071	136.64	0.8296	300.11	-1000000	-1000000	-1000000	-1000000	
0.1000	0.03077	136.10	0.8297	300.11	-1000000	-1000000	-1000000	-1000000	
0.1200	0.03080	135.43	0.8296	300.13	-1000000	-1000000	-1000000	-1000000	
0.1400	0.03080	135.32	0.8295	300.14	-1000000	-1000000	-1000000	-1000000	
0.1600	0.03074	135.47	0.8295	300.13	-1000000	-1000000	-1000000	-1000000	
0.1800	0.03067	135.44	0.8295	300.11	-1000000	-1000000	-1000000	-1000000	
0.2000	0.03069	135.29	0.8295	300.11	-1000000	-1000000	-1000000	-1000000	
0.2200	0.03073	135.13	0.8296	300.13	-1000000	-1000000	-1000000	-1000000	
0.2400	0.03080	135.12	0.8296	300.14	-1000000	-1000000	-1000000	-1000000	
0.2600	0.03082	135.20	0.8296	300.12	-1000000	-1000000	-1000000	-1000000	
0.2800	0.03080	135.48	0.8296	300.10	-1000000	-1000000	-1000000	-1000000	
0.3000	0.03080	136.26	0.8295	300.11	-1000000	-1000000	-1000000	-1000000	
0.3200	0.03080	136.82	0.8295	300.14	-1000000	-1000000	-1000000	-1000000	
0.3400	0.03078	137.01	0.8295	300.14	-1000000	-1000000	-1000000	-1000000	
0.3600	0.03077	136.90	0.8295	300.11	-1000000	-1000000	-1000000	-1000000	
0.3800	0.03074	136.78	0.8295	300.11	-1000000	-1000000	-1000000	-1000000	
0.4000	0.03076	136.73	0.8295	300.12	-1000000	-1000000	-1000000	-1000000	
0.4200	0.03078	136.71	0.8295	300.14	-1000000	-1000000	-1000000	-1000000	
0.4400	0.03081	136.77	0.8295	300.14	-1000000	-1000000	-1000000	-1000000	
0.4600	0.03084	137.01	0.8295	300.11	-1000000	-1000000	-1000000	-1000000	
0.4800	0.03084	137.15	0.8295	300.11	-1000000	-1000000	-1000000	-1000000	
0.5000	0.03082	137.08	0.8297	300.13	-1000000	-1000000	-1000000	-1000000	
0.5200	0.03080	136.99	0.8300	300.14	-1000000	-1000000	-1000000	-1000000	
0.5400	0.03082	136.88	0.8302	300.13	-1000000	-1000000	-1000000	-1000000	
0.5600	0.03086	136.83	0.8303	300.11	-1000000	-1000000	-1000000	-1000000	
0.5800	0.03088	136.98	0.8303	300.11	-1000000	-1000000	-1000000	-1000000	
0.6000	0.03084	137.18	0.8302	300.13	-1000000	-1000000	-1000000	-1000000	
0.6200	0.03083	137.19	0.8302	300.14	-1000000	-1000000	-1000000	-1000000	
0.6400	0.03085	137.11	0.8301	300.12	-1000000	-1000000	-1000000	-1000000	
0.6600	0.03087	136.88	0.8302	300.11	-1000000	-1000000	-1000000	-1000000	
0.6800	0.03085	136.84	0.8302	300.12	-1000000	-1000000	-1000000	-1000000	
0.7000	0.03084	136.68	0.8301	300.14	-1000000	-1000000	-1000000	-1000000	
0.7200	0.03084	136.34	0.8301	300.14	-1000000	-1000000	-1000000	-1000000	
0.7400	0.03081	136.01	0.8301	300.12	-1000000	-1000000	-1000000	-1000000	
0.7600	0.03083	136.28	0.8302	300.10	-1000000	-1000000	-1000000	-1000000	
0.7800	0.03085	136.33	0.8303	300.12	-1000000	-1000000	-1000000	-1000000	
0.8000	0.03088	136.37	0.8303	300.14	-1000000	-1000000	-1000000	-1000000	
0.8200	0.03091	136.65	0.8302	300.13	-1000000	-1000000	-1000000	-1000000	
0.8400	0.03094	136.92	0.8302	300.11	-1000000	-1000000	-1000000	-1000000	
0.8600	0.03094	137.07	0.8302	300.10	-1000000	-1000000	-1000000	-1000000	
0.8800	0.03093	137.11	0.8302	300.12	-1000000	-1000000	-1000000	-1000000	
0.9000	0.03092	136.94	0.8302	300.14	-1000000	-1000000	-1000000	-1000000	
0.9200	0.03087	136.87	0.8302	300.13	-1000000	-1000000	-1000000	-1000000	
0.9400	0.03086	137.03	0.8302	300.11	-1000000	-1000000	-1000000	-1000000	
0.9600	0.03090	137.06	0.8302	300.11	-1000000	-1000000	-1000000	-1000000	
0.9800	0.03086	137.06	0.8302	300.13	-1000000	-1000000	-1000000	-1000000	
1.000	0.03086	137.15	0.8302	300.14	-1000000	-1000000	-1000000	-1000000	
1.020	0.03089	137.22	0.8302	300.12	-1000000	-1000000	-1000000	-1000000	
1.040	0.03087	137.09	0.8302	300.10	-1000000	-1000000	-1000000	-1000000	
1.060	0.03082	137.04	0.8302	300.11	-1000000	-1000000	-1000000	-1000000	
1.080	0.03080	137.12	0.8301	300.13	-1000000	-1000000	-1000000	-1000000	
1.100	0.03081	137.15	0.8301	300.14	-1000000	-1000000	-1000000	-1000000	
1.120	0.03087	137.15	0.8301	300.12	-1000000	-1000000	-1000000	-1000000	
1.140	0.03092	136.97	0.8301	300.10	-1000000	-1000000	-1000000	-1000000	
1.160	0.03091	136.32	0.8302	300.12	-1000000	-1000000	-1000000	-1000000	
1.180	0.03092	135.59	0.8302	300.14	-1000000	-1000000	-1000000	-1000000	
1.200	0.03092	135.33	0.8302	300.13	-1000000	-1000000	-1000000	-1000000	
1.220	0.03090	135.25	0.8301	300.11	-1000000	-1000000	-1000000	-1000000	
1.240	0.03092	135.51	0.8301	300.11	-1000000	-1000000	-1000000	-1000000	
1.260	0.03090	136.30	0.8302	300.13	-1000000	-1000000	-1000000	-1000000	
1.280	0.03086	136.86	0.8305	300.14	-1000000	-1000000	-1000000	-1000000	
1.300	0.03085	136.83	0.8307	300.14	-1000000	-1000000	-1000000	-1000000	
1.320	0.03094	136.79	0.8309	300.11	-1000000	-1000000	-1000000	-1000000	
1.340	0.03098	136.96	0.8310	300.11	-1000000	-1000000	-1000000	-1000000	
1.360	0.03097	137.14	0.8309	300.13	-1000000	-1000000	-1000000	-1000000	
1.380	0.03093	137.03	0.8308	300.14	-1000000	-1000000	-1000000	-1000000	
1.400	0.03090	136.98	0.8308	300.12	-1000000	-1000000	-1000000	-1000000	
1.420	0.03091	136.98	0.8308	300.11	-1000000	-1000000	-1000000	-1000000	
1.440	0.03092	136.94	0.8307	300.11	-1000000	-1000000	-1000000	-1000000	
1.460	0.03092	136.95	0.8307	300.13	-1000000	-1000000	-1000000	-1000000	
1.480	0.03091	137.18	0.8308	300.14	-1000000	-1000000	-1000000	-1000000	
1.500	0.03088	137.28	0.8308	300.12	-1000000	-1000000	-1000000	-1000000	
1.520	0.03091	137.08	0.8309	300.10	-1000000	-1000000	-1000000	-1000000	
1.540	0.03095	136.30	0.8309	300.12	-1000000	-1000000	-1000000	-1000000	
1.560	0.03093	135.64	0.8308	300.14	-1000000	-1000000	-1000000	-1000000	
1.580	0.03091	135.38	0.8308	300.13	-1000000	-1000000	-1000000	-1000000	
1.600	0.03090	135.43	0.8309	300.11	-1000000	-1000000	-1000000	-1000000	
1.620	0.03094	135.63	0.8309	300.11	-1000000	-1000000	-1000000	-1000000	
1.640	0.03099	136.21	0.8309	300.13	-1000000	-1000000	-1000000	-1000000	
1.660	0.03099	136.49	0.8308	300.14	-1000000	-1000000	-1000000	-1000000	
1.680	0.03097	136.70	0.8308	300.13	-1000000	-1000000	-1000000	-1000000	
1.700	0.03096	136.96	0.8308	300.11	-1000000	-1000000	-1000000	-1000000	
1.720	0.03096	137.14	0.8309	300.10	-1000000	-1000000	-1000000	-1000000	
1.740	0.03097	137.08	0.8309	300.13	-1000000	-1000000	-1000000	-1000000	
1.760	0.03100	137.10	0.8308	300.14	-1000000	-1000000	-1000000	-1000000	
1.780	0.03100	137.24	0.8308	300.13	-1000000	-1000000	-1000000	-1000000	
1.800	0.03100	137.19	0.8309	300.11	-1000000	-1000000	-1000000	-1000000	
1.820	0.03105	137.02	0.8309	300.11	-1000000	-1000000	-1000000	-1000000	
1.840	0.03110	136.76	0.8309	300.13	-1000000	-1000000	-1000000	-1000000	
1.860	0.03115	136.07	0.8309	300.14	-1000000	-1000000	-1000000	-1000000	
1.880	0.03111	135.27	0.8309	300.12	-1000000	-1000000	-1000000	-1000000	
1.900	0.03108	134.44	0.8309	300.11	-1000000	-1000000	-1000000	-1000000	
1.920	0.03105	133.70	0.8309	300.12	-1000000	-1000000	-1000000	-1000000	
1.940	0.03100	132.77	0.8310	300.14	-1000000	-1000000	-1000000	-1000000	
1.960	0.03108	131.56	0.8313	300.13	-1000000	-1000000	-1000000	-1000000	
1.980	0.03117	130.23	0.8315	300.12	-1000000	-1000000	-1000000	-1000000	
2.000	0.03124	128.65	0.8316	300.11	-1000000	-1000000	-1000000	-1000000	
2.020	0.03128	126.70	0.8316	300.12	-1000000	-1000000	-1000000	-1000000	
2.040	0.03134	123.63	0.8317	300.14	-1000000	-1000000	-1000000	-1000000	
2.060	0.03150	118.22	0.8320	300.13	-1000000	-1000000	-1000000	-1000000	
2.080	0.03180	108.17	0.8322	300.11	-1000000	-1000000	-1000000	-1000000	
2.100	0.03220	90.43	0.8324	300.11	-1000000	-1000000	-1000000	-1000000	
2.120	0.03277	63.13	0.8327	300.13	-1000000	-1000000	-1000000	-1000000	
2.140	0.03354	29.51	0.8333	300.14	-1000000	-1000000	-1000000	-1000000	
2.160	0.03447	-6.345	0.8343	300.13	-1000000	-1000000	-1000000	-1000000	
2.180	0.03545	-37.92	0.8358	300.11	-1000000	-1000000	-1000000	-1000000	
2.200	0.03639	-59.03	0.8382	300.11	-1000000	-1000000	-1000000	-1000000	
2.220	0.03728	-67.81	0.8414	300.13	-1000000	-1000000	-1000000	-1000000	
2.240	0.03813	-67.19	0.8449	300.14	-1000000	-1000000	-1000000	-1000000	
2.260	0.03898	-61.83	0.8485	300.13	-1000000	-1000000	-1000000	-1000000	
2.280	0.03985	-56.77	0.8518	300.11	-1000000	-1000000	-1000000	-1000000	
2.300	0.04078	-54.53	0.8549	300.11	-1000000	-1000000	-1000000	-1000000	
2.320	0.04175	-54.80	0.8580	300.14	-1000000	-1000000	-1000000	-1000000	
2.340	0.04264	-56.32	0.8612	300.14	-1000000	-1000000	-1000000	-1000000	
2.360	0.04347	-58.59	0.8643	300.12	-1000000	-1000000	-1000000	-1000000	
2.380	0.04436	-60.23	0.8674	300.11	-1000000	-1000000	-1000000	-1000000	
2.400	0.04530	-60.16	0.8707	300.11	-1000000	-1000000	-1000000	-1000000	
2.420	0.04614	-59.70	0.8739	300.14	-1000000	-1000000	-1000000	-1000000	
2.440	0.04699	-59.00	0.8772	300.14	-1000000	-1000000	-1000000	-1000000	
2.460	0.04791	-58.79	0.8805	300.12	-1000000	-1000000	-1000000	-1000000	
2.480	0.04886	-59.49	0.8837	300.11	-1000000	-1000000	-1000000	-1000000	
2.500	0.04983	-61.20	0.8868	300.12	-1000000	-1000000	-1000000	-1000000	
2.520	0.05078	-63.05	0.8899	300.14	-1000000	-1000000	-1000000	-1000000	
2.540	0.05167	-64.71	0.8930	300.13	-1000000	-1000000	-1000000	-1000000	
2.560	0.05252	-65.81	0.8963	300.11	-1000000	-1000000	-1000000	-1000000	
2.580	0.05337	-66.36	0.8995	300.10	-1000000	-1000000	-1000000	-1000000	
2.600	0.05425	-66.41	0.9029	300.12	-1000000	-1000000	-1000000	-1000000	
2.620	0.05517	-65.48	0.9062	300.14	-1000000	-1000000	-1000000	-1000000	
2.640	0.05616	-64.35	0.9094	300.13	-1000000	-1000000	-1000000	-1000000	
2.660	0.05709	-63.62	0.9126	300.11	-1000000	-1000000	-1000000	-1000000	
2.680	0.05800	-63.93	0.9161	300.11	-1000000	-1000000	-1000000	-1000000	
2.700	0.05893	-64.36	0.9194	300.13	-1000000	-1000000	-1000000	-1000000	
2.720	0.05990	-64.52	0.9226	300.14	-1000000	-1000000	-1000000	-1000000	
2.740	0.06079	-64.48	0.9259	300.12	-1000000	-1000000	-1000000	-1000000	
2.760	0.06170	-64.37	0.9292	300.11	-1000000	-1000000	-1000000	-1000000	
2.780	0.06262	-64.38	0.9325	300.12	-1000000	-1000000	-1000000	-1000000	
2.800	0.06353	-64.23	0.9358	300.14	-1000000	-1000000	-1000000	-1000000	
2.820	0.06445	-63.49	0.9390	300.14	-1000000	-1000000	-1000000	-1000000	
2.840	0.06543	-62.87	0.9423	300.12	-1000000	-1000000	-1000000	-1000000	
2.860	0.06637	-62.75	0.9456	300.11	-1000000	-1000000	-1000000	-1000000	
2.880	0.06724	-63.43	0.9489	300.12	-1000000	-1000000	-1000000	-1000000	
2.900	0.06811	-64.50	0.9522	300.14	-1000000	-1000000	-1000000	-1000000	
2.920	0.06904	-65.53	0.9554	300.14	-1000000	-1000000	-1000000	-1000000	
2.940	0.07002	-66.61	0.9587	300.11	-1000000	-1000000	-1000000	-1000000	
2.960	0.07094	-67.73	0.9620	300.11	-1000000	-1000000	-1000000	-1000000	
2.980	0.07184	-68.84	0.9651	300.13	-1000000	-1000000	-1000000	-1000000	
3.000	0.07279	-69.44	0.9683	300.14	-1000000	-1000000	-1000000	-1000000	
3.020	0.07378	-69.05	0.9717	300.13	-1000000	-1000000	-1000000	-1000000	
3.040	0.07473	-68.25	0.9751	300.11	-1000000	-1000000	-1000000	-1000000	
3.060	0.07565	-67.63	0.9785	300.11	-1000000	-1000000	-1000000	-1000000	
3.080	0.07659	-66.91	0.9818	300.13	-1000000	-1000000	-1000000	-1000000	
3.100	0.07749	-66.58	0.9851	300.14	-1000000	-1000000	-1000000	-1000000	
3.120	0.07841	-66.56	0.9884	300.13	-1000000	-1000000	-1000000	-1000000	
3.140	0.07940	-67.01	0.9918	300.11	-1000000	-1000000	-1000000	-1000000	
3.160	0.08038	-67.62	0.9952	300.11	-1000000	-1000000	-1000000	-1000000	
3.180	0.08132	-67.57	0.9984	300.14	-1000000	-1000000	-1000000	-1000000	
3.200	0.08219	-66.86	1.002	300.14	-1000000	-1000000	-1000000	-1000000	
3.220	0.08307	-66.28	1.005	300.13	-1000000	-1000000	-1000000	-1000000	
3.240	0.08400	-65.54	1.008	300.11	-1000000	-1000000	-1000000	-1000000	
3.260	0.08491	-64.89	1.012	300.15	-1000000	-1000000	-1000000	-1000000	
3.280	0.08579	-64.59	1.015	300.24	-1000000	-1000000	-1000000	-1000000	
3.300	0.08674	-64.79	1.018	300.47	-1000000	-1000000	-1000000	-1000000	
3.320	0.08772	-65.62	1.022	301.56	-1000000	-1000000	-1000000	-1000000	
3.340	0.08870	-66.69	1.025	303.12	-1000000	-1000000	-1000000	-1000000	
3.360	0.08965	-67.68	1.028	303.85	-1000000	-1000000	-1000000	-1000000	
3.380	0.09058	-68.60	1.032	304.64	-1000000	-1000000	-1000000	-1000000	
3.400	0.09146	-69.01	1.035	306.35	-1000000	-1000000	-1000000	-1000000	
3.420	0.09236	-68.39	1.038	307.78	-1000000	-1000000	-1000000	-1000000	
3.440	0.09326	-67.25	1.042	308.18	-1000000	-1000000	-1000000	-1000000	
3.460	0.09415	-66.38	1.045	309.47	-1000000	-1000000	-1000000	-1000000	
3.480	0.09510	-66.00	1.048	312.28	-1000000	-1000000	-1000000	-1000000	
3.500	0.09608	-65.29	1.051	314.95	-1000000	-1000000	-1000000	-1000000	
3.520	0.09698	-64.94	1.055	316.92	-1000000	-1000000	-1000000	-1000000	
3.540	0.09775	-63.23	1.058	318.27	-1000000	-1000000	-1000000	-1000000	
3.560	0.09842	-55.38	1.061	319.24	-1000000	-1000000	-1000000	-1000000	
3.580	0.09900	-36.93	1.065	320.76	-1000000	-1000000	-1000000	-1000000	
3.600	0.09936	-7.460	1.068	321.97	-1000000	-1000000	-1000000	-1000000	
3.620	0.09954	29.81	1.071	322.47	-1000000	-1000000	-1000000	-1000000	
3.640	0.09965	69.81	1.074	322.12	-1000000	-1000000	-1000000	-1000000	
3.660	0.09973	106.52	1.075	321.98	-1000000	-1000000	-1000000	-1000000	
3.680	0.09980	133.94	1.076	322.33	-1000000	-1000000	-1000000	-1000000	
3.700	0.09981	150.12	1.077	322.67	-1000000	-1000000	-1000000	-1000000	
3.720	0.09981	156.96	1.077	322.60	-1000000	-1000000	-1000000	-1000000	
3.740	0.09978	158.04	1.077	322.33	-1000000	-1000000	-1000000	-1000000	
3.760	0.09975	156.68	1.076	322.37	-1000000	-1000000	-1000000	-1000000	
3.780	0.09977	155.07	1.076	322.62	-1000000	-1000000	-1000000	-1000000	
3.800	0.09978	153.83	1.076	322.42	-1000000	-1000000	-1000000	-1000000	
3.820	0.09976	152.80	1.075	321.86	-1000000	-1000000	-1000000	-1000000	
3.840	0.09980	151.62	1.075	321.45	-1000000	-1000000	-1000000	-1000000	
3.860	0.09979	150.43	1.075	321.19	-1000000	-1000000	-1000000	-1000000	
3.880	0.09974	149.32	1.075	321.26	-1000000	-1000000	-1000000	-1000000	
3.900	0.09975	148.56	1.075	321.67	-1000000	-1000000	-1000000	-1000000	
3.920	0.09973	147.85	1.074	321.61	-1000000	-1000000	-1000000	-1000000	
3.940	0.09971	146.91	1.074	321.36	-1000000	-1000000	-1000000	-1000000	
3.960	0.09971	145.95	1.074	321.18	-1000000	-1000000	-1000000	-1000000	
3.980	0.09971	144.91	1.074	321.00	-1000000	-1000000	-1000000	-1000000	
4.000	0.09970	144.03	1.074	321.20	-1000000	-1000000	-1000000	-1000000	
4.020	0.09966	143.77	1.074	321.77	-1000000	-1000000	-1000000	-1000000	
4.040	0.09966	143.78	1.074	321.99	-1000000	-1000000	-1000000	-1000000	
4.060	0.09968	143.77	1.073	321.29	-1000000	-1000000	-1000000	-1000000	
4.080	0.09966	143.63	1.073	320.98	-1000000	-1000000	-1000000	-1000000	
4.100	0.09962	143.72	1.073	320.67	-1000000	-1000000	-1000000	-1000000	
4.120	0.09965	143.83	1.073	320.65	-1000000	-1000000	-1000000	-1000000	
4.140	0.09967	143.83	1.073	320.53	-1000000	-1000000	-1000000	-1000000	
4.160	0.09966	143.69	1.073	320.26	-1000000	-1000000	-1000000	-1000000	
4.180	0.09966	143.36	1.073	319.85	-1000000	-1000000	-1000000	-1000000	
4.200	0.09964	142.65	1.073	320.02	-1000000	-1000000	-1000000	-1000000	
4.220	0.09959	142.10	1.073	320.13	-1000000	-1000000	-1000000	-1000000	
4.240	0.09954	141.78	1.073	319.98	-1000000	-1000000	-1000000	-1000000	
4.260	0.09950	141.33	1.073	320.04	-1000000	-1000000	-1000000	-1000000	
4.280	0.09950	140.55	1.073	319.63	-1000000	-1000000	-1000000	-1000000	
4.300	0.09949	139.27	1.073	319.82	-1000000	-1000000	-1000000	-1000000	
4.320	0.09952	137.68	1.073	320.11	-1000000	-1000000	-1000000	-1000000	
4.340	0.09958	135.34	1.073	319.84	-1000000	-1000000	-1000000	-1000000	
4.360	0.09964	131.93	1.073	320.07	-1000000	-1000000	-1000000	-1000000	
4.380	0.09972	126.20	1.073	320.58	-1000000	-1000000	-1000000	-1000000	
4.400	0.09983	116.20	1.073	320.61	-1000000	-1000000	-1000000	-1000000	
4.420	0.09996	99.22	1.073	321.13	-1000000	-1000000	-1000000	-1000000	
4.440	0.1001	75.79	1.073	322.03	-1000000	-1000000	-1000000	-1000000	
4.460	0.1004	50.38	1.074	322.52	-1000000	-1000000	-1000000	-1000000	
4.480	0.1009	30.05	1.074	322.55	-1000000	-1000000	-1000000	-1000000	
4.500	0.1013	21.33	1.076	322.89	-1000000	-1000000	-1000000	-1000000	
4.520	0.1017	28.60	1.078	323.61	-1000000	-1000000	-1000000	-1000000	
4.540	0.1019	50.61	1.080	323.83	-1000000	-1000000	-1000000	-1000000	
4.560	0.1020	79.82	1.082	323.84	-1000000	-1000000	-1000000	-1000000	
4.580	0.1020	107.56	1.084	324.49	-1000000	-1000000	-1000000	-1000000	
4.600	0.1021	127.04	1.085	325.50	-1000000	-1000000	-1000000	-1000000	
4.620	0.1021	135.56	1.085	326.23	-1000000	-1000000	-1000000	-1000000	
4.640	0.1021	134.62	1.085	326.55	-1000000	-1000000	-1000000	-1000000	
4.660	0.1022	128.30	1.085	326.68	-1000000	-1000000	-1000000	-1000000	
4.680	0.1023	120.42	1.085	326.46	-1000000	-1000000	-1000000	-1000000	
4.700	0.1024	113.23	1.085	326.87	-1000000	-1000000	-1000000	-1000000	
4.720	0.1024	108.73	1.085	327.33	-1000000	-1000000	-1000000	-1000000	
4.740	0.1024	108.21	1.085	327.16	-1000000	-1000000	-1000000	-1000000	
4.760	0.1025	111.81	1.086	327.29	-1000000	-1000000	-1000000	-1000000	
4.780	0.1026	117.66	1.086	327.40	-1000000	-1000000	-1000000	-1000000	
4.800	0.1026	123.66	1.087	326.91	-1000000	-1000000	-1000000	-1000000	
4.820	0.1027	128.32	1.087	326.58	-1000000	-1000000	-1000000	-1000000	
4.840	0.1027	130.66	1.087	327.02	-1000000	-1000000	-1000000	-1000000	
4.860	0.1028	130.54	1.087	327.69	-1000000	-1000000	-1000000	-1000000	
4.880	0.1028	128.59	1.087	328.20	-1000000	-1000000	-1000000	-1000000	
4.900	0.1029	124.94	1.088	328.01	-1000000	-1000000	-1000000	-1000000	
4.920	0.1029	120.71	1.088	327.60	-1000000	-1000000	-1000000	-1000000	
4.940	0.1030	116.59	1.088	327.29	-1000000	-1000000	-1000000	-1000000	
4.960	0.1031	113.14	1.088	327.19	-1000000	-1000000	-1000000	-1000000	
4.980	0.1032	110.77	1.088	327.81	-1000000	-1000000	-1000000	-1000000	
5.000	0.1033	110.08	1.089	328.52	-1000000	-1000000	-1000000	-1000000	
5.020	0.1035	110.92	1.089	328.72	-1000000	-1000000	-1000000	-1000000	
5.040	0.1035	112.19	1.090	328.89	-1000000	-1000000	-1000000	-1000000	
5.060	0.1036	113.04	1.090	328.89	-1000000	-1000000	-1000000	-1000000	
5.080	0.1037	113.13	1.090	328.93	-1000000	-1000000	-1000000	-1000000	
5.100	0.1038	112.35	1.091	329.46	-1000000	-1000000	-1000000	-1000000	
5.120	0.1038	111.10	1.091	330.22	-1000000	-1000000	-1000000	-1000000	
5.140	0.1039	109.61	1.091	330.52	-1000000	-1000000	-1000000	-1000000	
5.160	0.1040	108.66	1.092	330.71	-1000000	-1000000	-1000000	-1000000	
5.180	0.1041	108.71	1.092	330.74	-1000000	-1000000	-1000000	-1000000	
5.200	0.1043	109.59	1.093	330.96	-1000000	-1000000	-1000000	-1000000	
5.220	0.1044	111.67	1.093	331.17	-1000000	-1000000	-1000000	-1000000	
5.240	0.1044	114.21	1.093	330.94	-1000000	-1000000	-1000000	-1000000	
5.260	0.1045	116.24	1.094	331.00	-1000000	-1000000	-1000000	-1000000	
5.280	0.1045	117.65	1.094	331.31	-1000000	-1000000	-1000000	-1000000	
5.300	0.1046	118.36	1.094	331.97	-1000000	-1000000	-1000000	-1000000	
5.320	0.1047	118.08	1.095	332.36	-1000000	-1000000	-1000000	-1000000	
5.340	0.1048	117.37	1.095	332.14	-1000000	-1000000	-1000000	-1000000	
5.360	0.1049	116.92	1.095	332.20	-1000000	-1000000	-1000000	-1000000	
5.380	0.1049	116.67	1.095	332.41	-1000000	-1000000	-1000000	-1000000	
5.400	0.1050	116.73	1.096	332.49	-1000000	-1000000	-1000000	-1000000	
5.420	0.1050	116.89	1.096	332.46	-1000000	-1000000	-1000000	-1000000	
5.440	0.1051	116.88	1.096	332.24	-1000000	-1000000	-1000000	-1000000	
5.460	0.1051	116.79	1.096	332.25	-1000000	-1000000	-1000000	-1000000	
5.480	0.1052	116.16	1.097	332.71	-1000000	-1000000	-1000000	-1000000	
5.500	0.1053	114.62	1.097	333.04	-1000000	-1000000	-1000000	-1000000	
5.520	0.1054	111.40	1.097	332.92	-1000000	-1000000	-1000000	-1000000	
5.540	0.1056	107.28	1.098	333.21	-1000000	-1000000	-1000000	-1000000	
5.560	0.1058	103.16	1.098	333.78	-1000000	-1000000	-1000000	-1000000	
5.580	0.1059	99.91	1.098	334.26	-1000000	-1000000	-1000000	-1000000	
5.600	0.1059	98.57	1.099	334.57	-1000000	-1000000	-1000000	-1000000	
5.620	0.1060	99.15	1.099	334.74	-1000000	-1000000	-1000000	-1000000	
5.640	0.1062	101.60	1.100	334.93	-1000000	-1000000	-1000000	-1000000	
5.660	0.1063	105.27	1.101	335.11	-1000000	-1000000	-1000000	-1000000	
5.680	0.1064	109.21	1.101	335.80	-1000000	-1000000	-1000000	-1000000	
5.700	0.1065	113.05	1.101	336.18	-1000000	-1000000	-1000000	-1000000	
5.720	0.1066	116.30	1.102	335.91	-1000000	-1000000	-1000000	-1000000	
5.740	0.1066	118.08	1.102	335.83	-1000000	-1000000	-1000000	-1000000	
5.760	0.1067	118.62	1.102	336.38	-1000000	-1000000	-1000000	-1000000	
5.780	0.1067	118.14	1.103	336.83	-1000000	-1000000	-1000000	-1000000	
5.800	0.1067	117.13	1.103	336.99	-1000000	-1000000	-1000000	-1000000	
5.820	0.1068	115.97	1.103	336.94	-1000000	-1000000	-1000000	-1000000	
5.840	0.1069	115.82	1.103	337.15	-1000000	-1000000	-1000000	-1000000	
5.860	0.1070	116.31	1.104	337.23	-1000000	-1000000	-1000000	-1000000	
5.880	0.1071	116.78	1.104	337.73	-1000000	-1000000	-1000000	-1000000	
5.900	0.1072	117.05	1.104	337.74	-1000000	-1000000	-1000000	-1000000	
5.920	0.1072	116.74	1.105	337.87	-1000000	-1000000	-1000000	-1000000	
5.940	0.1073	115.74	1.105	338.21	-1000000	-1000000	-1000000	-1000000	
5.960	0.1074	114.94	1.105	338.33	-1000000	-1000000	-1000000	-1000000	
5.980	0.1075	114.17	1.105	338.46	-1000000	-1000000	-1000000	-1000000	
6.000	0.1077	113.16	1.106	338.88	-1000000	-1000000	-1000000	-1000000	
6.020	0.1077	112.37	1.106	339.15	-1000000	-1000000	-1000000	-1000000	
6.040	0.1078	111.83	1.106	339.52	-1000000	-1000000	-1000000	-1000000	
6.060	0.1079	111.61	1.107	340.05	-1000000	-1000000	-1000000	-1000000	
6.080	0.1079	112.50	1.107	340.33	-1000000	-1000000	-1000000	-1000000	
6.100	0.1080	114.88	1.108	340.35	-1000000	-1000000	-1000000	-1000000	
6.120	0.1080	118.00	1.108	340.47	-1000000	-1000000	-1000000	-1000000	
6.140	0.1080	120.84	1.108	340.71	-1000000	-1000000	-1000000	-1000000	
6.160	0.1081	122.94	1.109	340.81	-1000000	-1000000	-1000000	-1000000	
6.180	0.1081	124.40	1.109	340.65	-1000000	-1000000	-1000000	-1000000	
6.200	0.1082	124.72	1.109	340.95	-1000000	-1000000	-1000000	-1000000	
6.220	0.1083	124.12	1.109	341.11	-1000000	-1000000	-1000000	-1000000	
6.240	0.1083	123.79	1.109	341.17	-1000000	-1000000	-1000000	-1000000	
6.260	0.1083	123.83	1.110	341.80	-1000000	-1000000	-1000000	-1000000	
6.280	0.1084	123.77	1.110	341.75	-1000000	-1000000	-1000000	-1000000	
6.300	0.1084	124.21	1.110	341.50	-1000000	-1000000	-1000000	-1000000	
6.320	0.1085	125.17	1.110	341.57	-1000000	-1000000	-1000000	-1000000	
6.340	0.1085	126.24	1.110	341.96	-1000000	-1000000	-1000000	-1000000	
6.360	0.1085	126.39	1.110	342.26	-1000000	-1000000	-1000000	-1000000	
6.380	0.1085	124.94	1.111	342.24	-1000000	-1000000	-1000000	-1000000	
6.400	0.1086	122.21	1.111	342.56	-1000000	-1000000	-1000000	-1000000	
6.420	0.1087	119.54	1.111	342.85	-1000000	-1000000	-1000000	-1000000	
6.440	0.1088	117.03	1.111	342.95	-1000000	-1000000	-1000000	-1000000	
6.460	0.1089	114.61	1.111	343.03	-1000000	-1000000	-1000000	-1000000	
6.480	0.1089	112.69	1.112	343.31	-1000000	-1000000	-1000000	-1000000	
6.500	0.1090	112.06	1.112	343.73	-1000000	-1000000	-1000000	-1000000	
6.520	0.1091	112.71	1.112	344.22	-1000000	-1000000	-1000000	-1000000	
6.540	0.1092	113.87	1.113	344.62	-1000000	-1000000	-1000000	-1000000	
6.560	0.1093	115.34	1.113	344.71	-1000000	-1000000	-1000000	-1000000	
6.580	0.1094	116.97	1.114	344.92	-1000000	-1000000	-1000000	-1000000	
6.600	0.1094	118.57	1.114	344.97	-1000000	-1000000	-1000000	-1000000	
6.620	0.1095	120.09	1.114	344.96	-1000000	-1000000	-1000000	-1000000	
6.640	0.1095	121.98	1.114	345.22	-1000000	-1000000	-1000000	-1000000	
6.660	0.1095	124.23	1.115	345.11	-1000000	-1000000	-1000000	-1000000	
6.680	0.1096	126.29	1.115	344.87	-1000000	-1000000	-1000000	-1000000	
6.700	0.1096	127.74	1.115	344.84	-1000000	-1000000	-1000000	-1000000	
6.720	0.1097	128.30	1.115	345.17	-1000000	-1000000	-1000000	-1000000	
6.740	0.1097	128.14	1.115	345.26	-1000000	-1000000	-1000000	-1000000	
6.760	0.1098	126.70	1.115	345.48	-1000000	-1000000	-1000000	-1000000	
6.780	0.1098	123.82	1.115	346.05	-1000000	-1000000	-1000000	-1000000	
6.800	0.1098	119.60	1.116	346.32	-1000000	-1000000	-1000000	-1000000	
6.820	0.1099	114.37	1.116	346.54	-1000000	-1000000	-1000000	-1000000	
6.840	0.1100	109.48	1.116	347.12	-1000000	-1000000	-1000000	-1000000	
6.860	0.1101	105.78	1.116	347.21	-1000000	-1000000	-1000000	-1000000	
6.880	0.1103	104.61	1.117	347.02	-1000000	-1000000	-1000000	-1000000	
6.900	0.1104	106.30	1.117	346.98	-1000000	-1000000	-1000000	-1000000	
6.920	0.1105	110.22	1.118	347.41	-1000000	-1000000	-1000000	-1000000	
6.940	0.1105	115.29	1.118	348.11	-1000000	-1000000	-1000000	-1000000	
6.960	0.1106	119.54	1.118	348.93	-1000000	-1000000	-1000000	-1000000	
6.980	0.1106	122.22	1.119	349.29	-1000000	-1000000	-1000000	-1000000	
7.000	0.1106	122.71	1.119	349.33	-1000000	-1000000	-1000000	-1000000	
7.020	0.1107	121.50	1.119	349.11	-1000000	-1000000	-1000000	-1000000	
7.040	0.1108	120.22	1.119	348.83	-1000000	-1000000	-1000000	-1000000	
7.060	0.1109	119.75	1.120	348.78	-1000000	-1000000	-1000000	-1000000	
7.080	0.1109	120.44	1.120	349.30	-1000000	-1000000	-1000000	-1000000	
7.100	0.1110	122.05	1.120	349.67	-1000000	-1000000	-1000000	-1000000	
7.120	0.1109	124.67	1.120	349.55	-1000000	-1000000	-1000000	-1000000	
7.140	0.1110	127.67	1.121	349.67	-1000000	-1000000	-1000000	-1000000	
7.160	0.1110	130.09	1.121	349.60	-1000000	-1000000	-1000000	-1000000	
7.180	0.1110	131.45	1.121	349.49	-1000000	-1000000	-1000000	-1000000	
7.200	0.1110	131.90	1.121	349.54	-1000000	-1000000	-1000000	-1000000	
7.220	0.1111	131.82	1.121	349.68	-1000000	-1000000	-1000000	-1000000	
7.240	0.1111	131.25	1.121	349.66	-1000000	-1000000	-1000000	-1000000	
7.260	0.1111	130.56	1.121	349.77	-1000000	-1000000	-1000000	-1000000	
7.280	0.1111	130.17	1.121	350.09	-1000000	-1000000	-1000000	-1000000	
7.300	0.1111	130.11	1.122	350.18	-1000000	-1000000	-1000000	-1000000	
7.320	0.1110	130.38	1.122	350.27	-1000000	-1000000	-1000000	-1000000	
7.340	0.1110	131.26	1.122	350.43	-1000000	-1000000	-1000000	-1000000	
7.360	0.1111	132.34	1.122	350.26	-1000000	-1000000	-1000000	-1000000	
7.380	0.1111	133.39	1.122	350.01	-1000000	-1000000	-1000000	-1000000	
7.400	0.1111	134.63	1.122	350.02	-1000000	-1000000	-1000000	-1000000	
7.420	0.1111	135.80	1.122	350.15	-1000000	-1000000	-1000000	-1000000	
7.440	0.1111	136.90	1.122	350.03	-1000000	-1000000	-1000000	-1000000	
7.460	0.1111	138.16	1.122	350.43	-1000000	-1000000	-1000000	-1000000	
7.480	0.1110	139.69	1.122	350.87	-1000000	-1000000	-1000000	-1000000	
7.500	0.1110	141.14	1.122	351.05	-1000000	-1000000	-1000000	-1000000	
7.520	0.1111	142.00	1.122	350.96	-1000000	-1000000	-1000000	-1000000	
7.540	0.1112	143.10	1.122	351.09	-1000000	-1000000	-1000000	-1000000	
7.560	0.1111	144.33	1.122	351.20	-1000000	-1000000	-1000000	-1000000	
7.580	0.1111	145.25	1.122	351.14	-1000000	-1000000	-1000000	-1000000	
7.600	0.1111	146.39	1.122	350.86	-1000000	-1000000	-1000000	-1000000	
7.620	0.1110	147.40	1.122	350.46	-1000000	-1000000	-1000000	-1000000	
7.640	0.1110	148.28	1.122	350.21	-1000000	-1000000	-1000000	-1000000	
7.660	0.1110	148.76	1.122	350.27	-1000000	-1000000	-1000000	-1000000	
7.680	0.1110	149.28	1.122	350.28	-1000000	-1000000	-1000000	-1000000	
7.700	0.1110	149.92	1.122	350.34	-1000000	-1000000	-1000000	-1000000	
7.720	0.1110	150.34	1.121	350.45	-1000000	-1000000	-1000000	-1000000	
7.740	0.1111	151.06	1.121	350.41	-1000000	-1000000	-1000000	-1000000	
7.760	0.1110	151.73	1.121	350.23	-1000000	-1000000	-1000000	-1000000	
7.780	0.1109	152.05	1.121	350.05	-1000000	-1000000	-1000000	-1000000	
7.800	0.1109	152.16	1.121	350.16	-1000000	-1000000	-1000000	-1000000	
7.820	0.1109	151.93	1.120	350.24	-1000000	-1000000	-1000000	-1000000	
7.840	0.1109	151.04	1.120	350.46	-1000000	-1000000	-1000000	-1000000	
7.860	0.1109	150.13	1.120	350.57	-1000000	-1000000	-1000000	-1000000	
7.880	0.1108	149.23	1.120	350.44	-1000000	-1000000	-1000000	-1000000	
7.900	0.1108	148.67	1.120	350.10	-1000000	-1000000	-1000000	-1000000	
7.920	0.1108	148.07	1.120	350.08	-1000000	-1000000	-1000000	-1000000	
7.940	0.1108	147.15	1.120	350.52	-1000000	-1000000	-1000000	-1000000	
7.960	0.1108	145.92	1.119	350.60	-1000000	-1000000	-1000000	-1000000	
7.980	0.1107	144.41	1.119	350.32	-1000000	-1000000	-1000000	-1000000	
8.000	0.1105	142.66	1.119	350.34	-1000000	-1000000	-1000000	-1000000	
8.020	0.1106	141.06	1.119	350.41	-1000000	-1000000	-1000000	-1000000	
8.040	0.1107	139.37	1.119	350.43	-1000000	-1000000	-1000000	-1000000	
8.060	0.1108	137.78	1.119	350.30	-1000000	-1000000	-1000000	-1000000	
8.080	0.1108	136.55	1.119	350.45	-1000000	-1000000	-1000000	-1000000	
8.100	0.1107	135.47	1.119	350.74	-1000000	-1000000	-1000000	-1000000	
8.120	0.1107	134.37	1.119	350.89	-1000000	-1000000	-1000000	-1000000	
8.140	0.1107	133.33	1.119	350.97	-1000000	-1000000	-1000000	-1000000	
8.160	0.1107	132.47	1.119	351.01	-1000000	-1000000	-1000000	-1000000	
8.180	0.1107	132.02	1.119	350.84	-1000000	-1000000	-1000000	-1000000	
8.200	0.1107	131.89	1.119	350.83	-1000000	-1000000	-1000000	-1000000	
8.220	0.1107	131.86	1.119	351.09	-1000000	-1000000	-1000000	-1000000	
8.240	0.1107	132.07	1.119	351.38	-1000000	-1000000	-1000000	-1000000	
8.260	0.1107	132.84	1.119	351.09	-1000000	-1000000	-1000000	-1000000	
8.280	0.1106	133.56	1.119	350.82	-1000000	-1000000	-1000000	-1000000	
8.300	0.1106	134.37	1.119	350.97	-1000000	-1000000	-1000000	-1000000	
8.320	0.1106	135.29	1.119	351.06	-1000000	-1000000	-1000000	-1000000	
8.340	0.1106	136.32	1.119	350.59	-1000000	-1000000	-1000000	-1000000	
8.360	0.1106	137.29	1.120	350.75	-1000000	-1000000	-1000000	-1000000	
8.380	0.1107	138.31	1.120	351.31	-1000000	-1000000	-1000000	-1000000	
8.400	0.1106	139.74	1.120	351.18	-1000000	-1000000	-1000000	-1000000	
8.420	0.1106	141.19	1.120	350.95	-1000000	-1000000	-1000000	-1000000	
8.440	0.1106	142.22	1.120	350.92	-1000000	-1000000	-1000000	-1000000	
8.460	0.1106	143.22	1.120	350.98	-1000000	-1000000	-1000000	-1000000	
8.480	0.1106	144.39	1.119	350.76	-1000000	-1000000	-1000000	-1000000	
8.500	0.1106	145.53	1.119	350.67	-1000000	-1000000	-1000000	-1000000	
8.520	0.1105	146.59	1.119	350.61	-1000000	-1000000	-1000000	-1000000	
8.540	0.1106	147.82	1.119	350.75	-1000000	-1000000	-1000000	-1000000	
8.560	0.1106	148.69	1.119	350.82	-1000000	-1000000	-1000000	-1000000	
8.580	0.1105	149.65	1.119	350.65	-1000000	-1000000	-1000000	-1000000	
8.600	0.1105	150.29	1.119	350.49	-1000000	-1000000	-1000000	-1000000	
8.620	0.1104	150.41	1.119	350.32	-1000000	-1000000	-1000000	-1000000	
8.640	0.1103	150.19	1.118	350.36	-1000000	-1000000	-1000000	-1000000	
8.660	0.1104	150.07	1.118	350.35	-1000000	-1000000	-1000000	-1000000	
8.680	0.1104	149.57	1.118	350.44	-1000000	-1000000	-1000000	-1000000	
8.700	0.1104	148.91	1.118	350.63	-1000000	-1000000	-1000000	-1000000	
8.720	0.1103	148.14	1.118	350.90	-1000000	-1000000	-1000000	-1000000	
8.740	0.1103	147.36	1.118	350.87	-1000000	-1000000	-1000000	-1000000	
8.760	0.1103	146.46	1.118	350.60	-1000000	-1000000	-1000000	-1000000	
8.780	0.1102	145.70	1.117	350.45	-1000000	-1000000	-1000000	-1000000	
8.800	0.1102	145.48	1.117	350.30	-1000000	-1000000	-1000000	-1000000	
8.820	0.1101	145.33	1.117	350.32	-1000000	-1000000	-1000000	-1000000	
8.840	0.1101	145.28	1.117	350.44	-1000000	-1000000	-1000000	-1000000	
8.860	0.1101	144.87	1.117	350.40	-1000000	-1000000	-1000000	-1000000	
8.880	0.1101	144.08	1.117	350.05	-1000000	-1000000	-1000000	-1000000	
8.900	0.1101	143.58	1.117	350.02	-1000000	-1000000	-1000000	-1000000	
8.920	0.1101	143.40	1.117	349.93	-1000000	-1000000	-1000000	-1000000	
8.940	0.1101	143.41	1.116	350.15	-1000000	-1000000	-1000000	-1000000	
8.960	0.1100	143.41	1.116	350.38	-1000000	-1000000	-1000000	-1000000	
8.980	0.1099	143.48	1.116	350.44	-1000000	-1000000	-1000000	-1000000	
9.000	0.1099	143.57	1.116	350.64	-1000000	-1000000	-1000000	-1000000	
9.020	0.1099	143.66	1.116	350.49	-1000000	-1000000	-1000000	-1000000	
9.040	0.1099	143.55	1.116	350.54	-1000000	-1000000	-1000000	-1000000	
9.060	0.1099	143.24	1.116	350.54	-1000000	-1000000	-1000000	-1000000	
9.080	0.1099	143.05	1.116	350.45	-1000000	-1000000	-1000000	-1000000	
9.100	0.1099	142.41	1.116	350.26	-1000000	-1000000	-1000000	-1000000	
9.120	0.1098	141.78	1.116	350.10	-1000000	-1000000	-1000000	-1000000	
9.140	0.1098	141.15	1.116	350.06	-1000000	-1000000	-1000000	-1000000	
9.160	0.1097	140.53	1.116	350.07	-1000000	-1000000	-1000000	-1000000	
9.180	0.1097	139.70	1.116	350.01	-1000000	-1000000	-1000000	-1000000	
9.200	0.1098	138.38	1.116	350.00	-1000000	-1000000	-1000000	-1000000	
9.220	0.1098	136.57	1.116	350.12	-1000000	-1000000	-1000000	-1000000	
9.240	0.1098	134.51	1.115	350.19	-1000000	-1000000	-1000000	-1000000	
9.260	0.1098	132.26	1.116	350.40	-1000000	-1000000	-1000000	-1000000	
9.280	0.1098	129.91	1.116	350.42	-1000000	-1000000	-1000000	-1000000	
9.300	0.1098	127.73	1.116	350.28	-1000000	-1000000	-1000000	-1000000	
9.320	0.1098	125.82	1.116	350.31	-1000000	-1000000	-1000000	-1000000	
9.340	0.1098	123.99	1.116	350.39	-1000000	-1000000	-1000000	-1000000	
9.360	0.1098	122.53	1.116	350.95	-1000000	-1000000	-1000000	-1000000	
9.380	0.1098	121.85	1.116	351.06	-1000000	-1000000	-1000000	-1000000	
9.400	0.1099	121.77	1.116	351.10	-1000000	-1000000	-1000000	-1000000	
9.420	0.1099	121.86	1.117	350.94	-1000000	-1000000	-1000000	-1000000	
9.440	0.1098	122.07	1.117	350.70	-1000000	-1000000	-1000000	-1000000	
9.460	0.1098	122.88	1.117	350.58	-1000000	-1000000	-1000000	-1000000	
9.480	0.1098	123.92	1.117	350.69	-1000000	-1000000	-1000000	-1000000	
9.500	0.1097	125.06	1.117	350.77	-1000000	-1000000	-1000000	-1000000	
9.520	0.1098	126.10	1.117	350.56	-1000000	-1000000	-1000000	-1000000	
9.540	0.1099	127.16	1.118	350.35	-1000000	-1000000	-1000000	-1000000	
9.560	0.1099	128.69	1.118	350.31	-1000000	-1000000	-1000000	-1000000	
9.580	0.1099	130.43	1.118	350.55	-1000000	-1000000	-1000000	-1000000	
9.600	0.1099	132.10	1.118	350.86	-1000000	-1000000	-1000000	-1000000	
9.620	0.1098	133.49	1.118	351.04	-1000000	-1000000	-1000000	-1000000	
9.640	0.1098	135.17	1.118	351.03	-1000000	-1000000	-1000000	-1000000	
9.660	0.1099	137.04	1.118	350.86	-1000000	-1000000	-1000000	-1000000	
9.680	0.1099	138.79	1.118	350.60	-1000000	-1000000	-1000000	-1000000	
9.700	0.1098	140.09	1.118	350.37	-1000000	-1000000	-1000000	-1000000	
9.720	0.1098	141.26	1.118	350.26	-1000000	-1000000	-1000000	-1000000	
9.740	0.1098	142.64	1.118	350.52	-1000000	-1000000	-1000000	-1000000	
9.760	0.1098	144.03	1.118	350.77	-1000000	-1000000	-1000000	-1000000	
9.780	0.1098	145.27	1.118	350.77	-1000000	-1000000	-1000000	-1000000	
9.800	0.1097	146.34	1.118	350.53	-1000000	-1000000	-1000000	-1000000	
9.820	0.1097	147.33	1.118	350.34	-1000000	-1000000	-1000000	-1000000	
9.840	0.1097	148.37	1.118	350.09	-1000000	-1000000	-1000000	-1000000	
9.860	0.1097	149.49	1.118	350.18	-1000000	-1000000	-1000000	-1000000	
9.880	0.1096	149.97	1.118	350.37	-1000000	-1000000	-1000000	-1000000	
9.900	0.1096	150.70	1.118	350.39	-1000000	-1000000	-1000000	-1000000	
9.920	0.1096	151.61	1.118	350.41	-1000000	-1000000	-1000000	-1000000	
9.940	0.1096	151.96	1.118	350.55	-1000000	-1000000	-1000000	-1000000	
9.960	0.1096	152.24	1.117	350.46	-1000000	-1000000	-1000000	-1000000	
9.980	0.1096	153.02	1.117	350.50	-1000000	-1000000	-1000000	-1000000	
10.00	0.1095	153.51	1.117	350.36	-1000000	-1000000	-1000000	-1000000	
10.02	0.1095	153.72	1.117	350.60	-1000000	-1000000	-1000000	-1000000	
10.04	0.1095	153.77	1.117	350.64	-1000000	-1000000	-1000000	-1000000	
10.06	0.1096	153.57	1.116	350.19	-1000000	-1000000	-1000000	-1000000	
10.08	0.1096	153.07	1.116	350.16	-1000000	-1000000	-1000000	-1000000	
10.10	0.1095	152.40	1.116	350.30	-1000000	-1000000	-1000000	-1000000	
10.12	0.1094	151.90	1.116	350.41	-1000000	-1000000	-1000000	-1000000	
10.14	0.1093	151.12	1.116	350.11	-1000000	-1000000	-1000000	-1000000	
10.16	0.1093	150.40	1.115	350.01	-1000000	-1000000	-1000000	-1000000	
10.18	0.1094	149.37	1.115	350.34	-1000000	-1000000	-1000000	-1000000	
10.20	0.1094	147.85	1.115	350.36	-1000000	-1000000	-1000000	-1000000	
10.22	0.1093	146.06	1.115	350.26	-1000000	-1000000	-1000000	-1000000	
10.24	0.1093	144.31	1.115	350.59	-1000000	-1000000	-1000000	-1000000	
10.26	0.1093	142.65	1.114	350.64	-1000000	-1000000	-1000000	-1000000	
10.28	0.1093	141.20	1.114	350.46	-1000000	-1000000	-1000000	-1000000	
10.30	0.1092	140.35	1.114	350.35	-1000000	-1000000	-1000000	-1000000	
10.32	0.1092	139.82	1.114	350.08	-1000000	-1000000	-1000000	-1000000	
10.34	0.1092	139.23	1.114	349.95	-1000000	-1000000	-1000000	-1000000	
10.36	0.1091	138.88	1.114	350.23	-1000000	-1000000	-1000000	-1000000	
10.38	0.1092	138.69	1.114	350.40	-1000000	-1000000	-1000000	-1000000	
10.40	0.1092	138.66	1.114	350.16	-1000000	-1000000	-1000000	-1000000	
10.42	0.1092	138.69	1.114	349.92	-1000000	-1000000	-1000000	-1000000	
10.44	0.1092	138.74	1.114	349.69	-1000000	-1000000	-1000000	-1000000	
10.46	0.1092	138.26	1.114	349.75	-1000000	-1000000	-1000000	-1000000	
10.48	0.1092	137.32	1.114	349.88	-1000000	-1000000	-1000000	-1000000	
10.50	0.1091	136.81	1.114	350.16	-1000000	-1000000	-1000000	-1000000	
10.52	0.1091	136.88	1.114	350.21	-1000000	-1000000	-1000000	-1000000	
10.54	0.1091	136.92	1.114	350.24	-1000000	-1000000	-1000000	-1000000	
10.56	0.1091	136.16	1.114	350.18	-1000000	-1000000	-1000000	-1000000	
10.58	0.1092	135.32	1.114	350.11	-1000000	-1000000	-1000000	-1000000	
10.60	0.1091	134.48	1.114	349.98	-1000000	-1000000	-1000000	-1000000	
10.62	0.1091	133.61	1.114	349.88	-1000000	-1000000	-1000000	-1000000	
10.64	0.1091	132.53	1.114	350.17	-1000000	-1000000	-1000000	-1000000	
10.66	0.1090	131.87	1.114	350.69	-1000000	-1000000	-1000000	-1000000	
10.68	0.1090	131.86	1.114	350.74	-1000000	-1000000	-1000000	-1000000	
10.70	0.1090	132.05	1.114	350.75	-1000000	-1000000	-1000000	-1000000	
10.72	0.1091	131.98	1.114	350.65	-1000000	-1000000	-1000000	-1000000	
10.74	0.1091	131.77	1.114	350.22	-1000000	-1000000	-1000000	-1000000	
10.76	0.1091	132.07	1.115	349.93	-1000000	-1000000	-1000000	-1000000	
10.78	0.1090	132.96	1.115	349.92	-1000000	-1000000	-1000000	-1000000	
10.80	0.1090	133.84	1.115	349.98	-1000000	-1000000	-1000000	-1000000	
10.82	0.1090	134.88	1.115	350.52	-1000000	-1000000	-1000000	-1000000	
10.84	0.1090	135.88	1.115	350.58	-1000000	-1000000	-1000000	-1000000	
10.86	0.1089	136.83	1.115	350.19	-1000000	-1000000	-1000000	-1000000	
10.88	0.1089	137.90	1.115	349.98	-1000000	-1000000	-1000000	-1000000	
10.90	0.1090	139.16	1.115	350.18	-1000000	-1000000	-1000000	-1000000	
10.92	0.1090	140.11	1.115	350.37	-1000000	-1000000	-1000000	-1000000	
10.94	0.1090	141.10	1.115	350.43	-1000000	-1000000	-1000000	-1000000	
10.96	0.1090	142.33	1.115	350.43	-1000000	-1000000	-1000000	-1000000	
10.98	0.1090	143.79	1.115	350.33	-1000000	-1000000	-1000000	-1000000	
11.00	0.1089	144.87	1.115	349.96	-1000000	-1000000	-1000000	-1000000	
11.02	0.1089	145.89	1.119	350.05	-1000000	-1000000	-1000000	-1000000	
11.04	0.1089	146.77	1.136	350.19	-1000000	-1000000	-1000000	-1000000	
11.06	0.1089	147.57	1.149	350.15	-1000000	-1000000	-1000000	-1000000	
11.08	0.1089	148.39	1.154	350.04	-1000000	-1000000	-1000000	-1000000	
11.10	0.1089	149.26	1.154	349.98	-1000000	-1000000	-1000000	-1000000	
11.12	0.1088	149.96	1.154	349.91	-1000000	-1000000	-1000000	-1000000	
11.14	0.1088	150.28	1.153	349.88	-1000000	-1000000	-1000000	-1000000	
11.16	0.1088	150.24	1.153	349.81	-1000000	-1000000	-1000000	-1000000	
11.18	0.1088	149.57	1.153	349.67	-1000000	-1000000	-1000000	-1000000	
11.20	0.1087	148.44	1.153	349.27	-1000000	-1000000	-1000000	-1000000	
11.22	0.1087	147.30	1.153	349.31	-1000000	-1000000	-1000000	-1000000	
11.24	0.1087	146.16	1.153	349.82	-1000000	-1000000	-1000000	-1000000	
11.26	0.1088	144.95	1.152	349.85	-1000000	-1000000	-1000000	-1000000	
11.28	0.1088	144.15	1.152	349.71	-1000000	-1000000	-1000000	-1000000	
11.30	0.1087	144.35	1.153	349.63	-1000000	-1000000	-1000000	-1000000	
11.32	0.1087	145.16	1.153	349.84	-1000000	-1000000	-1000000	-1000000	
11.34	0.1087	146.41	1.153	350.00	-1000000	-1000000	-1000000	-1000000	
11.36	0.1087	148.66	1.153	349.81	-1000000	-1000000	-1000000	-1000000	
11.38	0.1088	152.22	1.154	349.67	-1000000	-1000000	-1000000	-1000000	
11.40	0.1090	156.99	1.155	349.54	-1000000	-1000000	-1000000	-1000000	
11.42	0.1092	163.55	1.156	349.27	-1000000	-1000000	-1000000	-1000000	
11.44	0.1093	172.38	1.157	349.16	-1000000	-1000000	-1000000	-1000000	
11.46	0.1095	183.85	1.158	349.40	-1000000	-1000000	-1000000	-1000000	
11.48	0.1097	198.75	1.159	349.68	-1000000	-1000000	-1000000	-1000000	
11.50	0.1101	218.51	1.160	349.87	-1000000	-1000000	-1000000	-1000000	
11.52	0.1104	244.18	1.161	349.88	-1000000	-1000000	-1000000	-1000000	
11.54	0.1107	275.99	1.163	349.99	-1000000	-1000000	-1000000	-1000000	
11.56	0.1110	313.65	1.165	350.42	-1000000	-1000000	-1000000	-1000000	
11.58	0.1114	356.84	1.167	350.64	-1000000	-1000000	-1000000	-1000000	
11.60	0.1119	404.00	1.169	350.81	-1000000	-1000000	-1000000	-1000000	
11.62	0.1123	454.09	1.171	350.89	-1000000	-1000000	-1000000	-1000000	
11.64	0.1127	506.89	1.173	350.93	-1000000	-1000000	-1000000	-1000000	
11.66	0.1131	562.53	1.175	350.91	-1000000	-1000000	-1000000	-1000000	
11.68	0.1135	621.41	1.178	350.75	-1000000	-1000000	-1000000	-1000000	
11.70	0.1140	683.63	1.180	350.51	-1000000	-1000000	-1000000	-1000000	
11.72	0.1145	748.59	1.183	350.41	-1000000	-1000000	-1000000	-1000000	
11.74	0.1150	816.04	1.186	350.59	-1000000	-1000000	-1000000	-1000000	
11.76	0.1155	886.46	1.189	350.82	-1000000	-1000000	-1000000	-1000000	
11.78	0.1159	959.60	1.192	350.87	-1000000	-1000000	-1000000	-1000000	
11.80	0.1164	1035.9	1.195	350.87	-1000000	-1000000	-1000000	-1000000	
11.82	0.1170	1115.2	1.198	350.98	-1000000	-1000000	-1000000	-1000000	
11.84	0.1175	1196.8	1.201	351.00	-1000000	-1000000	-1000000	-1000000	
11.86	0.1180	1281.0	1.205	350.81	-1000000	-1000000	-1000000	-1000000	
11.88	0.1186	1368.2	1.209	350.78	-1000000	-1000000	-1000000	-1000000	
11.90	0.1192	1457.9	1.212	350.67	-1000000	-1000000	-1000000	-1000000	
11.92	0.1199	1550.4	1.216	350.55	-1000000	-1000000	-1000000	-1000000	
11.94	0.1205	1645.6	1.220	350.52	-1000000	-1000000	-1000000	-1000000	
11.96	0.1212	1743.5	1.224	350.56	-1000000	-1000000	-1000000	-1000000	
11.98	0.1218	1843.8	1.228	350.60	-1000000	-1000000	-1000000	-1000000	
12.00	0.1224	1946.3	1.233	350.57	-1000000	-1000000	-1000000	-1000000	
12.02	0.1231	2051.3	1.237	350.69	-1000000	-1000000	-1000000	-1000000	
12.04	0.1238	2158.8	1.242	350.67	-1000000	-1000000	-1000000	-1000000	
12.06	0.1245	2269.1	1.247	350.61	-1000000	-1000000	-1000000	-1000000	
12.08	0.1252	2381.8	1.251	350.36	-1000000	-1000000	-1000000	-1000000	
12.10	0.1259	2496.4	1.256	350.11	-1000000	-1000000	-1000000	-1000000	
12.12	0.1266	2612.7	1.261	349.96	-1000000	-1000000	-1000000	-1000000	
12.14	0.1273	2731.1	1.266	350.09	-1000000	-1000000	-1000000	-1000000	
12.16	0.1280	2851.6	1.272	350.23	-1000000	-1000000	-1000000	-1000000	
12.18	0.1287	2974.3	1.277	350.18	-1000000	-1000000	-1000000	-1000000	
12.20	0.1295	3099.4	1.283	350.05	-1000000	-1000000	-1000000	-1000000	
12.22	0.1303	3226.4	1.288	350.05	-1000000	-1000000	-1000000	-1000000	
12.24	0.1311	3355.4	1.294	350.04	-1000000	-1000000	-1000000	-1000000	
12.26	0.1320	3486.4	1.300	350.27	-1000000	-1000000	-1000000	-1000000	
12.28	0.1328	3619.3	1.306	350.32	-1000000	-1000000	-1000000	-1000000	
12.30	0.1335	3754.1	1.312	350.11	-1000000	-1000000	-1000000	-1000000	
12.32	0.1343	3890.2	1.318	349.67	-1000000	-1000000	-1000000	-1000000	
12.34	0.1351	4027.4	1.325	349.69	-1000000	-1000000	-1000000	-1000000	
12.36	0.1359	4165.3	1.331	349.86	-1000000	-1000000	-1000000	-1000000	
12.38	0.1367	4303.6	1.338	349.77	-1000000	-1000000	-1000000	-1000000	
12.40	0.1375	4442.1	1.345	349.73	-1000000	-1000000	-1000000	-1000000	
12.42	0.1383	4581.5	1.351	349.80	-1000000	-1000000	-1000000	-1000000	
12.44	0.1392	4722.6	1.358	349.80	-1000000	-1000000	-1000000	-1000000	
12.46	0.1401	4865.1	1.365	349.42	-1000000	-1000000	-1000000	-1000000	
12.48	0.1409	5009.0	1.373	349.15	-1000000	-1000000	-1000000	-1000000	
12.50	0.1418	5154.1	1.380	349.25	-1000000	-1000000	-1000000	-1000000	
12.52	0.1426	5300.9	1.388	349.52	-1000000	-1000000	-1000000	-1000000	
12.54	0.1434	5449.2	1.395	349.72	-1000000	-1000000	-1000000	-1000000	
12.56	0.1444	5599.3	1.403	349.34	-1000000	-1000000	-1000000	-1000000	
12.58	0.1454	5751.6	1.410	349.23	-1000000	-1000000	-1000000	-1000000	
12.60	0.1463	5905.4	1.418	349.56	-1000000	-1000000	-1000000	-1000000	
12.62	0.1472	6060.4	1.426	349.67	-1000000	-1000000	-1000000	-1000000	
12.64	0.1482	6217.0	1.435	349.50	-1000000	-1000000	-1000000	-1000000	
12.66	0.1492	6375.2	1.443	349.34	-1000000	-1000000	-1000000	-1000000	
12.68	0.1502	6533.9	1.451	349.36	-1000000	-1000000	-1000000	-1000000	
12.70	0.1512	6692.7	1.460	349.43	-1000000	-1000000	-1000000	-1000000	
12.72	0.1522	6852.9	1.469	349.24	-1000000	-1000000	-1000000	-1000000	
12.74	0.1532	7014.8	1.477	349.34	-1000000	-1000000	-1000000	-1000000	
12.76	0.1542	7178.0	1.486	349.46	-1000000	-1000000	-1000000	-1000000	
12.78	0.1553	7343.3	1.495	349.61	-1000000	-1000000	-1000000	-1000000	
12.80	0.1564	7511.1	1.505	349.85	-1000000	-1000000	-1000000	-1000000	
12.82	0.1575	7680.3	1.514	349.97	-1000000	-1000000	-1000000	-1000000	
12.84	0.1585	7850.9	1.523	350.05	-1000000	-1000000	-1000000	-1000000	
12.86	0.1596	8022.6	1.533	350.07	-1000000	-1000000	-1000000	-1000000	
12.88	0.1607	8195.5	1.542	350.09	-1000000	-1000000	-1000000	-1000000	
12.90	0.1618	8370.0	1.552	350.28	-1000000	-1000000	-1000000	-1000000	
12.92	0.1630	8546.7	1.562	350.57	-1000000	-1000000	-1000000	-1000000	
12.94	0.1643	8724.6	1.572	350.64	-1000000	-1000000	-1000000	-1000000	
12.96	0.1656	8903.4	1.582	350.32	-1000000	-1000000	-1000000	-1000000	
12.98	0.1669	9083.1	1.592	350.12	-1000000	-1000000	-1000000	-1000000	
13.00	0.1683	9263.1	1.602	350.20	-1000000	-1000000	-1000000	-1000000	
13.02	0.1697	9443.5	1.613	350.10	-1000000	-1000000	-1000000	-1000000	
13.04	0.1712	9623.3	1.623	349.87	-1000000	-1000000	-1000000	-1000000	
13.06	0.1728	9802.8	1.634	349.80	-1000000	-1000000	-1000000	-1000000	
13.08	0.1745	9981.7	1.645	349.79	-1000000	-1000000	-1000000	-1000000	
13.10	0.1765	10159	1.656	349.64	-1000000	-1000000	-1000000	-1000000	
13.12	0.1787	10333	1.667	349.58	-1000000	-1000000	-1000000	-1000000	
13.14	0.1812	10504	1.678	349.61	-1000000	-1000000	-1000000	-1000000	
13.16	0.1842	10672	1.689	349.48	-1000000	-1000000	-1000000	-1000000	
13.18	0.1881	10832	1.701	349.51	-1000000	-1000000	-1000000	-1000000	
13.20	0.1932	10982	1.712	349.90	-1000000	-1000000	-1000000	-1000000	
13.22	0.2003	11118	1.724	350.21	-1000000	-1000000	-1000000	-1000000	
13.24	0.2103	11232	1.736	350.08	-1000000	-1000000	-1000000	-1000000	
13.26	0.2219	11312	1.748	350.13	-1000000	-1000000	-1000000	-1000000	
13.28	0.2330	11354	1.760	350.20	-1000000	-1000000	-1000000	-1000000	
13.30	0.2431	11368	1.772	349.71	-1000000	-1000000	-1000000	-1000000	
13.32	0.2527	11365	1.784	349.46	-1000000	-1000000	-1000000	-1000000	
13.34	0.2621	11357	1.796	349.71	-1000000	-1000000	-1000000	-1000000	
13.36	0.2714	11355	1.809	350.18	-1000000	-1000000	-1000000	-1000000	
13.38	0.2805	11367	1.821	350.58	-1000000	-1000000	-1000000	-1000000	
13.40	0.2892	11389	1.834	350.29	-1000000	-1000000	-1000000	-1000000	
13.42	0.2976	11413	1.847	349.90	-1000000	-1000000	-1000000	-1000000	
13.44	0.3059	11436	1.860	349.71	-1000000	-1000000	-1000000	-1000000	
13.46	0.3140	11459	1.873	350.03	-1000000	-1000000	-1000000	-1000000	
13.48	0.3218	11481	1.886	350.18	-1000000	-1000000	-1000000	-1000000	
13.50	0.3295	11503	1.900	350.30	-1000000	-1000000	-1000000	-1000000	
13.52	0.3371	11524	1.913	350.44	-1000000	-1000000	-1000000	-1000000	
13.54	0.3447	11545	1.927	350.66	-1000000	-1000000	-1000000	-1000000	
13.56	0.3523	11565	1.940	350.66	-1000000	-1000000	-1000000	-1000000	
13.58	0.3599	11585	1.954	350.70	-1000000	-1000000	-1000000	-1000000	
13.60	0.3676	11604	1.968	350.57	-1000000	-1000000	-1000000	-1000000	
13.62	0.3754	11624	1.982	350.32	-1000000	-1000000	-1000000	-1000000	
13.64	0.3835	11644	1.996	350.16	-1000000	-1000000	-1000000	-1000000	
13.66	0.3919	11665	2.011	350.27	-1000000	-1000000	-1000000	-1000000	
13.68	0.4004	11685	2.025	350.57	-1000000	-1000000	-1000000	-1000000	
13.70	0.4091	11706	2.039	350.73	-1000000	-1000000	-1000000	-1000000	
13.72	0.4179	11726	2.054	350.48	-1000000	-1000000	-1000000	-1000000	
13.74	0.4270	11747	2.069	350.60	-1000000	-1000000	-1000000	-1000000	
13.76	0.4364	11767	2.084	350.85	-1000000	-1000000	-1000000	-1000000	
13.78	0.4459	11787	2.099	350.86	-1000000	-1000000	-1000000	-1000000	
13.80	0.4556	11806	2.114	351.01	-1000000	-1000000	-1000000	-1000000	
13.82	0.4654	11825	2.129	350.92	-1000000	-1000000	-1000000	-1000000	
13.84	0.4752	11844	2.145	350.56	-1000000	-1000000	-1000000	-1000000	
13.86	0.4851	11861	2.160	350.35	-1000000	-1000000	-1000000	-1000000	
13.88	0.4950	11878	2.176	350.51	-1000000	-1000000	-1000000	-1000000	
13.90	0.5051	11896	2.191	350.57	-1000000	-1000000	-1000000	-1000000	
13.92	0.5153	11913	2.207	350.76	-1000000	-1000000	-1000000	-1000000	
13.94	0.5255	11931	2.223	350.84	-1000000	-1000000	-1000000	-1000000	
13.96	0.5358	11947	2.239	350.71	-1000000	-1000000	-1000000	-1000000	
13.98	0.5461	11964	2.256	350.61	-1000000	-1000000	-1000000	-1000000	
14.00	0.5566	11981	2.272	350.70	-1000000	-1000000	-1000000	-1000000	
14.02	0.5670	11998	2.288	350.57	-1000000	-1000000	-1000000	-1000000	
14.04	0.5774	12014	2.305	350.23	-1000000	-1000000	-1000000	-1000000	
14.06	0.5878	12030	2.322	350.47	-1000000	-1000000	-1000000	-1000000	
14.08	0.5981	12046	2.338	350.98	-1000000	-1000000	-1000000	-1000000	
14.10	0.6086	12062	2.355	351.15	-1000000	-1000000	-1000000	-1000000	
14.12	0.6193	12078	2.372	351.03	-1000000	-1000000	-1000000	-1000000	
14.14	0.6302	12094	2.389	351.02	-1000000	-1000000	-1000000	-1000000	
14.16	0.6412	12110	2.407	351.27	-1000000	-1000000	-1000000	-1000000	
14.18	0.6521	12127	2.424	351.20	-1000000	-1000000	-1000000	-1000000	
14.20	0.6631	12143	2.442	350.99	-1000000	-1000000	-1000000	-1000000	
14.22	0.6741	12158	2.459	351.11	-1000000	-1000000	-1000000	-1000000	
14.24	0.6852	12172	2.477	351.24	-1000000	-1000000	-1000000	-1000000	
14.26	0.6964	12186	2.495	351.18	-1000000	-1000000	-1000000	-1000000	
14.28	0.7076	12200	2.513	351.30	-1000000	-1000000	-1000000	-1000000	
14.30	0.7190	12214	2.531	351.34	-1000000	-1000000	-1000000	-1000000	
14.32	0.7304	12229	2.549	351.41	-1000000	-1000000	-1000000	-1000000	
14.34	0.7419	12243	2.568	351.36	-1000000	-1000000	-1000000	-1000000	
14.36	0.7534	12257	2.586	351.17	-1000000	-1000000	-1000000	-1000000	
14.38	0.7649	12271	2.605	351.25	-1000000	-1000000	-1000000	-1000000	
14.40	0.7766	12285	2.624	351.51	-1000000	-1000000	-1000000	-1000000	
14.42	0.7884	12299	2.642	351.60	-1000000	-1000000	-1000000	-1000000	
14.44	0.8003	12312	2.661	351.49	-1000000	-1000000	-1000000	-1000000	
14.46	0.8122	12325	2.680	351.63	-1000000	-1000000	-1000000	-1000000	
14.48	0.8243	12339	2.699	351.67	-1000000	-1000000	-1000000	-1000000	
14.50	0.8364	12352	2.719	351.41	-1000000	-1000000	-1000000	-1000000	
14.52	0.8486	12364	2.738	351.35	-1000000	-1000000	-1000000	-1000000	
14.54	0.8609	12377	2.758	351.60	-1000000	-1000000	-1000000	-1000000	
14.56	0.8732	12390	2.778	351.48	-1000000	-1000000	-1000000	-1000000	
14.58	0.8857	12402	2.797	351.23	-1000000	-1000000	-1000000	-1000000	
14.60	0.8983	12414	2.817	351.15	-1000000	-1000000	-1000000	-1000000	
14.62	0.9109	12427	2.837	351.04	-1000000	-1000000	-1000000	-1000000	
14.64	0.9237	12439	2.858	350.80	-1000000	-1000000	-1000000	-1000000	
14.66	0.9366	12451	2.878	351.01	-1000000	-1000000	-1000000	-1000000	
14.68	0.9496	12463	2.898	351.29	-1000000	-1000000	-1000000	-1000000	
14.70	0.9627	12475	2.919	351.50	-1000000	-1000000	-1000000	-1000000	
14.72	0.9758	12488	2.940	351.43	-1000000	-1000000	-1000000	-1000000	
14.74	0.9891	12500	2.960	351.26	-1000000	-1000000	-1000000	-1000000	
14.76	1.002	12511	2.981	351.21	-1000000	-1000000	-1000000	-1000000	
14.78	1.016	12522	3.002	351.40	-1000000	-1000000	-1000000	-1000000	
14.80	1.030	12533	3.023	351.55	-1000000	-1000000	-1000000	-1000000	
14.82	1.043	12544	3.045	351.64	-1000000	-1000000	-1000000	-1000000	
14.84	1.057	12554	3.066	351.60	-1000000	-1000000	-1000000	-1000000	
14.86	1.071	12565	3.088	351.90	-1000000	-1000000	-1000000	-1000000	
14.88	1.085	12576	3.109	351.95	-1000000	-1000000	-1000000	-1000000	
14.90	1.100	12586	3.131	351.80	-1000000	-1000000	-1000000	-1000000	
14.92	1.114	12596	3.153	352.09	-1000000	-1000000	-1000000	-1000000	
14.94	1.128	12606	3.175	352.32	-1000000	-1000000	-1000000	-1000000	
14.96	1.143	12616	3.197	352.16	-1000000	-1000000	-1000000	-1000000	
14.98	1.158	12626	3.219	352.17	-1000000	-1000000	-1000000	-1000000	
15.00	1.173	12636	3.241	352.10	-1000000	-1000000	-1000000	-1000000	
15.02	1.188	12645	3.264	352.08	-1000000	-1000000	-1000000	-1000000	
15.04	1.203	12655	3.286	352.22	-1000000	-1000000	-1000000	-1000000	
15.06	1.218	12665	3.309	352.19	-1000000	-1000000	-1000000	-1000000	
15.08	1.233	12674	3.332	351.92	-1000000	-1000000	-1000000	-1000000	
15.10	1.249	12683	3.354	352.16	-1000000	-1000000	-1000000	-1000000	
15.12	1.265	12692	3.377	352.54	-1000000	-1000000	-1000000	-1000000	
15.14	1.280	12700	3.401	352.68	-1000000	-1000000	-1000000	-1000000	
15.16	1.296	12709	3.424	352.59	-1000000	-1000000	-1000000	-1000000	
15.18	1.313	12717	3.448	352.53	-1000000	-1000000	-1000000	-1000000	
15.20	1.329	12725	3.471	352.71	-1000000	-1000000	-1000000	-1000000	
15.22	1.346	12732	3.495	352.75	-1000000	-1000000	-1000000	-1000000	
15.24	1.362	12740	3.518	352.65	-1000000	-1000000	-1000000	-1000000	
15.26	1.379	12748	3.542	352.50	-1000000	-1000000	-1000000	-1000000	
15.28	1.396	12755	3.566	352.64	-1000000	-1000000	-1000000	-1000000	
15.30	1.413	12762	3.590	352.85	-1000000	-1000000	-1000000	-1000000	
15.32	1.431	12770	3.615	352.85	-1000000	-1000000	-1000000	-1000000	
15.34	1.448	12776	3.639	352.98	-1000000	-1000000	-1000000	-1000000	
15.36	1.466	12783	3.663	353.20	-1000000	-1000000	-1000000	-1000000	
15.38	1.483	12790	3.688	353.10	-1000000	-1000000	-1000000	-1000000	
15.40	1.501	12797	3.713	352.92	-1000000	-1000000	-1000000	-1000000	
15.42	1.519	12803	3.738	352.98	-1000000	-1000000	-1000000	-1000000	
15.44	1.537	12810	3.763	353.33	-1000000	-1000000	-1000000	-1000000	
15.46	1.556	12816	3.788	353.56	-1000000	-1000000	-1000000	-1000000	
15.48	1.575	12822	3.813	353.51	-1000000	-1000000	-1000000	-1000000	
15.50	1.593	12827	3.838	353.24	-1000000	-1000000	-1000000	-1000000	
15.52	1.612	12832	3.864	353.36	-1000000	-1000000	-1000000	-1000000	
15.54	1.632	12838	3.889	353.75	-1000000	-1000000	-1000000	-1000000	
15.56	1.651	12843	3.915	354.13	-1000000	-1000000	-1000000	-1000000	
15.58	1.671	12847	3.941	354.20	-1000000	-1000000	-1000000	-1000000	
15.60	1.691	12852	3.967	354.17	-1000000	-1000000	-1000000	-1000000	
15.62	1.711	12857	3.993	353.84	-1000000	-1000000	-1000000	-1000000	
15.64	1.731	12862	4.019	353.69	-1000000	-1000000	-1000000	-1000000	
15.66	1.751	12866	4.045	353.67	-1000000	-1000000	-1000000	-1000000	
15.68	1.772	12870	4.072	354.06	-1000000	-1000000	-1000000	-1000000	
15.70	1.793	12875	4.098	354.27	-1000000	-1000000	-1000000	-1000000	
15.72	1.814	12878	4.125	354.35	-1000000	-1000000	-1000000	-1000000	
15.74	1.835	12881	4.152	354.41	-1000000	-1000000	-1000000	-1000000	
15.76	1.856	12884	4.179	354.53	-1000000	-1000000	-1000000	-1000000	
15.78	1.878	12887	4.205	355.02	-1000000	-1000000	-1000000	-1000000	
15.80	1.900	12890	4.233	355.32	-1000000	-1000000	-1000000	-1000000	
15.82	1.922	12892	4.260	355.39	-1000000	-1000000	-1000000	-1000000	
15.84	1.945	12894	4.287	355.41	-1000000	-1000000	-1000000	-1000000	
15.86	1.967	12896	4.315	355.35	-1000000	-1000000	-1000000	-1000000	
15.88	1.990	12898	4.342	355.35	-1000000	-1000000	-1000000	-1000000	
15.90	2.013	12899	4.370	355.45	-1000000	-1000000	-1000000	-1000000	
15.92	2.036	12901	4.398	355.79	-1000000	-1000000	-1000000	-1000000	
15.94	2.060	12902	4.426	356.09	-1000000	-1000000	-1000000	-1000000	
15.96	2.083	12902	4.454	356.43	-1000000	-1000000	-1000000	-1000000	
15.98	2.108	12902	4.482	356.70	-1000000	-1000000	-1000000	-1000000	
16.00	2.132	12903	4.511	356.98	-1000000	-1000000	-1000000	-1000000	
16.02	2.156	12902	4.539	357.20	-1000000	-1000000	-1000000	-1000000	
16.04	2.181	12902	4.567	357.13	-1000000	-1000000	-1000000	-1000000	
16.06	2.206	12902	4.596	356.95	-1000000	-1000000	-1000000	-1000000	
16.08	2.231	12901	4.625	357.07	-1000000	-1000000	-1000000	-1000000	
16.10	2.257	12899	4.654	357.31	-1000000	-1000000	-1000000	-1000000	
16.12	2.282	12898	4.683	357.45	-1000000	-1000000	-1000000	-1000000	
16.14	2.308	12896	4.712	357.83	-1000000	-1000000	-1000000	-1000000	
16.16	2.335	12894	4.741	357.99	-1000000	-1000000	-1000000	-1000000	
16.18	2.361	12891	4.771	358.11	-1000000	-1000000	-1000000	-1000000	
16.20	2.388	12888	4.800	358.37	-1000000	-1000000	-1000000	-1000000	
16.22	2.415	12884	4.830	358.77	-1000000	-1000000	-1000000	-1000000	
16.24	2.442	12880	4.860	359.04	-1000000	-1000000	-1000000	-1000000	
16.26	2.470	12876	4.890	359.26	-1000000	-1000000	-1000000	-1000000	
16.28	2.498	12871	4.920	359.44	-1000000	-1000000	-1000000	-1000000	
16.30	2.526	12865	4.950	359.82	-1000000	-1000000	-1000000	-1000000	
16.32	2.554	12859	4.980	360.17	-1000000	-1000000	-1000000	-1000000	
16.34	2.583	12852	5.010	360.31	-1000000	-1000000	-1000000	-1000000	
16.36	2.612	12845	5.041	360.50	-1000000	-1000000	-1000000	-1000000	
16.38	2.641	12837	5.071	360.84	-1000000	-1000000	-1000000	-1000000	
16.40	2.670	12829	5.102	361.16	-1000000	-1000000	-1000000	-1000000	
16.42	2.700	12820	5.133	361.61	-1000000	-1000000	-1000000	-1000000	
16.44	2.730	12810	5.164	362.14	-1000000	-1000000	-1000000	-1000000	
16.46	2.761	12800	5.195	362.50	-1000000	-1000000	-1000000	-1000000	
16.48	2.791	12789	5.226	362.71	-1000000	-1000000	-1000000	-1000000	
16.50	2.822	12776	5.257	362.94	-1000000	-1000000	-1000000	-1000000	
16.52	2.853	12764	5.289	363.06	-1000000	-1000000	-1000000	-1000000	
16.54	2.884	12750	5.320	363.46	-1000000	-1000000	-1000000	-1000000	
16.56	2.915	12736	5.352	364.02	-1000000	-1000000	-1000000	-1000000	
16.58	2.947	12720	5.384	364.53	-1000000	-1000000	-1000000	-1000000	
16.60	2.979	12704	5.416	364.99	-1000000	-1000000	-1000000	-1000000	
16.62	3.011	12686	5.448	365.43	-1000000	-1000000	-1000000	-1000000	
16.64	3.044	12667	5.480	365.82	-1000000	-1000000	-1000000	-1000000	
16.66	3.076	12646	5.512	366.42	-1000000	-1000000	-1000000	-1000000	
16.68	3.109	12624	5.545	367.01	-1000000	-1000000	-1000000	-1000000	
16.70	3.143	12601	5.577	367.34	-1000000	-1000000	-1000000	-1000000	
16.72	3.176	12577	5.610	367.94	-1000000	-1000000	-1000000	-1000000	
16.74	3.210	12552	5.643	368.85	-1000000	-1000000	-1000000	-1000000	
16.76	3.244	12524	5.675	369.53	-1000000	-1000000	-1000000	-1000000	
16.78	3.278	12495	5.708	370.27	-1000000	-1000000	-1000000	-1000000	
16.80	3.312	12465	5.742	370.89	-1000000	-1000000	-1000000	-1000000	
16.82	3.347	12432	5.775	371.55	-1000000	-1000000	-1000000	-1000000	
16.84	3.382	12397	5.808	372.12	-1000000	-1000000	-1000000	-1000000	
16.86	3.417	12361	5.842	372.76	-1000000	-1000000	-1000000	-1000000	
16.88	3.452	12322	5.875	373.52	-1000000	-1000000	-1000000	-1000000	
16.90	3.488	12281	5.909	374.29	-1000000	-1000000	-1000000	-1000000	
16.92	3.524	12238	5.943	375.06	-1000000	-1000000	-1000000	-1000000	
16.94	3.560	12191	5.977	375.79	-1000000	-1000000	-1000000	-1000000	
16.96	3.597	12141	6.011	376.44	-1000000	-1000000	-1000000	-1000000	
16.98	3.633	12089	6.045	377.10	-1000000	-1000000	-1000000	-1000000	
17.00	3.671	12033	6.079	377.92	-1000000	-1000000	-1000000	-1000000	
17.02	3.708	11974	6.114	378.77	-1000000	-1000000	-1000000	-1000000	
17.04	3.745	11911	6.148	379.68	-1000000	-1000000	-1000000	-1000000	
17.06	3.783	11845	6.183	380.44	-1000000	-1000000	-1000000	-1000000	
17.08	3.822	11775	6.218	381.12	-1000000	-1000000	-1000000	-1000000	
17.10	3.860	11701	6.253	381.84	-1000000	-1000000	-1000000	-1000000	
17.12	3.900	11621	6.288	382.66	-1000000	-1000000	-1000000	-1000000	
17.14	3.939	11536	6.323	383.62	-1000000	-1000000	-1000000	-1000000	
17.16	3.979	11445	6.358	384.51	-1000000	-1000000	-1000000	-1000000	
17.18	4.019	11348	6.394	385.24	-1000000	-1000000	-1000000	-1000000	
17.20	4.059	11243	6.429	386.10	-1000000	-1000000	-1000000	-1000000	
17.22	4.092	11129	6.465	386.93	-1000000	-1000000	-1000000	-1000000	
17.24	4.117	11005	6.500	387.41	-1000000	-1000000	-1000000	-1000000	
17.26	4.131	10874	6.535	387.36	-1000000	-1000000	-1000000	-1000000	
17.28	4.139	10740	6.563	386.98	-1000000	-1000000	-1000000	-1000000	
17.30	4.144	10609	6.583	386.46	-1000000	-1000000	-1000000	-1000000	
17.32	4.147	10489	6.594	385.89	-1000000	-1000000	-1000000	-1000000	
17.34	4.150	10387	6.599	385.23	-1000000	-1000000	-1000000	-1000000	
17.36	4.151	10304	6.601	384.48	-1000000	-1000000	-1000000	-1000000	
17.38	4.153	10240	6.602	383.86	-1000000	-1000000	-1000000	-1000000	
17.40	4.154	10190	6.603	383.49	-1000000	-1000000	-1000000	-1000000	
17.42	4.155	10151	6.603	382.87	-1000000	-1000000	-1000000	-1000000	
17.44	4.155	10118	6.603	382.19	-1000000	-1000000	-1000000	-1000000	
17.46	4.156	10091	6.603	381.78	-1000000	-1000000	-1000000	-1000000	
17.48	4.157	10069	6.603	381.50	-1000000	-1000000	-1000000	-1000000	
17.50	4.157	10049	6.603	381.04	-1000000	-1000000	-1000000	-1000000	
17.52	4.158	10033	6.604	380.76	-1000000	-1000000	-1000000	-1000000	
17.54	4.158	10018	6.604	380.35	-1000000	-1000000	-1000000	-1000000	
17.56	4.158	10006	6.604	379.99	-1000000	-1000000	-1000000	-1000000	
17.58	4.159	9994.9	6.604	379.71	-1000000	-1000000	-1000000	-1000000	
17.60	4.159	9985.0	6.603	379.31	-1000000	-1000000	-1000000	-1000000	
17.62	4.159	9976.3	6.603	378.90	-1000000	-1000000	-1000000	-1000000	
17.64	4.160	9968.3	6.603	378.63	-1000000	-1000000	-1000000	-1000000	
17.66	4.160	9960.7	6.603	378.30	-1000000	-1000000	-1000000	-1000000	
17.68	4.160	9953.9	6.603	377.89	-1000000	-1000000	-1000000	-1000000	
17.70	4.160	9947.9	6.603	377.64	-1000000	-1000000	-1000000	-1000000	
17.72	4.161	9942.2	6.603	377.42	-1000000	-1000000	-1000000	-1000000	
17.74	4.161	9937.1	6.603	377.12	-1000000	-1000000	-1000000	-1000000	
17.76	4.161	9932.5	6.604	376.82	-1000000	-1000000	-1000000	-1000000	
17.78	4.161	9928.2	6.604	376.56	-1000000	-1000000	-1000000	-1000000	
17.80	4.161	9924.4	6.604	376.15	-1000000	-1000000	-1000000	-1000000	
17.82	4.161	9921.1	6.604	375.83	-1000000	-1000000	-1000000	-1000000	
17.84	4.161	9917.7	6.603	375.57	-1000000	-1000000	-1000000	-1000000	
17.86	4.162	9914.2	6.603	375.26	-1000000	-1000000	-1000000	-1000000	
17.88	4.162	9910.7	6.603	374.95	-1000000	-1000000	-1000000	-1000000	
17.90	4.162	9907.8	6.603	374.85	-1000000	-1000000	-1000000	-1000000	
17.92	4.162	9905.2	6.603	374.76	-1000000	-1000000	-1000000	-1000000	
17.94	4.162	9902.4	6.603	374.70	-1000000	-1000000	-1000000	-1000000	
17.96	4.162	9899.9	6.603	374.46	-1000000	-1000000	-1000000	-1000000	
17.98	4.162	9897.8	6.603	373.90	-1000000	-1000000	-1000000	-1000000	
18.00	4.162	9895.5	6.603	373.55	-1000000	-1000000	-1000000	-1000000	
18.02	4.163	9893.1	6.603	373.29	-1000000	-1000000	-1000000	-1000000	
18.04	4.163	9890.8	6.603	372.99	-1000000	-1000000	-1000000	-1000000	
18.06	4.163	9888.5	6.602	372.70	-1000000	-1000000	-1000000	-1000000	
18.08	4.163	9886.4	6.602	372.52	-1000000	-1000000	-1000000	-1000000	
18.10	4.163	9884.3	6.602	372.61	-1000000	-1000000	-1000000	-1000000	
18.12	4.163	9882.4	6.602	372.50	-1000000	-1000000	-1000000	-1000000	
18.14	4.163	9880.7	6.602	372.50	-1000000	-1000000	-1000000	-1000000	
18.16	4.163	9879.1	6.602	372.53	-1000000	-1000000	-1000000	-1000000	
18.18	4.163	9877.3	6.601	372.33	-1000000	-1000000	-1000000	-1000000	
18.20	4.163	9875.2	6.601	371.87	-1000000	-1000000	-1000000	-1000000	
18.22	4.163	9873.1	6.601	371.55	-1000000	-1000000	-1000000	-1000000	
18.24	4.163	9871.1	6.601	371.33	-1000000	-1000000	-1000000	-1000000	
18.26	4.163	9868.9	6.601	371.16	-1000000	-1000000	-1000000	-1000000	
18.28	4.163	9866.8	6.601	370.95	-1000000	-1000000	-1000000	-1000000	
18.30	4.163	9864.0	6.601	370.86	-1000000	-1000000	-1000000	-1000000	
18.32	4.163	9860.9	6.600	370.59	-1000000	-1000000	-1000000	-1000000	
18.34	4.163	9858.3	6.600	370.38	-1000000	-1000000	-1000000	-1000000	
18.36	4.163	9855.6	6.600	370.02	-1000000	-1000000	-1000000	-1000000	
18.38	4.163	9852.4	6.600	369.89	-1000000	-1000000	-1000000	-1000000	
18.40	4.163	9849.1	6.599	369.93	-1000000	-1000000	-1000000	-1000000	
18.42	4.164	9845.6	6.599	369.53	-1000000	-1000000	-1000000	-1000000	
18.44	4.164	9841.9	6.599	368.97	-1000000	-1000000	-1000000	-1000000	
18.46	4.164	9838.0	6.599	369.08	-1000000	-1000000	-1000000	-1000000	
18.48	4.164	9834.1	6.599	369.30	-1000000	-1000000	-1000000	-1000000	
18.50	4.164	9830.2	6.598	369.20	-1000000	-1000000	-1000000	-1000000	
18.52	4.164	9826.0	6.598	368.92	-1000000	-1000000	-1000000	-1000000	
18.54	4.164	9821.9	6.598	368.63	-1000000	-1000000	-1000000	-1000000	
18.56	4.163	9817.7	6.598	368.20	-1000000	-1000000	-1000000	-1000000	
18.58	4.163	9813.5	6.597	368.03	-1000000	-1000000	-1000000	-1000000	
18.60	4.163	9809.2	6.597	368.07	-1000000	-1000000	-1000000	-1000000	
18.62	4.163	9804.6	6.597	368.26	-1000000	-1000000	-1000000	-1000000	
18.64	4.163	9800.0	6.596	368.21	-1000000	-1000000	-1000000	-1000000	
18.66	4.163	9795.2	6.596	367.87	-1000000	-1000000	-1000000	-1000000	
18.68	4.163	9790.0	6.596	367.67	-1000000	-1000000	-1000000	-1000000	
18.70	4.163	9784.6	6.595	367.55	-1000000	-1000000	-1000000	-1000000	
18.72	4.163	9779.4	6.595	367.37	-1000000	-1000000	-1000000	-1000000	
18.74	4.163	9773.9	6.595	367.18	-1000000	-1000000	-1000000	-1000000	
18.76	4.163	9768.2	6.594	367.20	-1000000	-1000000	-1000000	-1000000	
18.78	4.163	9762.4	6.594	367.10	-1000000	-1000000	-1000000	-1000000	
18.80	4.163	9756.4	6.594	366.86	-1000000	-1000000	-1000000	-1000000	
18.82	4.163	9750.4	6.593	366.49	-1000000	-1000000	-1000000	-1000000	
18.84	4.163	9744.1	6.593	366.38	-1000000	-1000000	-1000000	-1000000	
18.86	4.163	9737.7	6.593	366.27	-1000000	-1000000	-1000000	-1000000	
18.88	4.163	9730.8	6.592	366.29	-1000000	-1000000	-1000000	-1000000	
18.90	4.163	9724.0	6.592	366.23	-1000000	-1000000	-1000000	-1000000	
18.92	4.163	9717.3	6.591	365.79	-1000000	-1000000	-1000000	-1000000	
18.94	4.163	9710.8	6.591	365.39	-1000000	-1000000	-1000000	-1000000	
18.96	4.163	9704.1	6.591	365.18	-1000000	-1000000	-1000000	-1000000	
18.98	4.163	9697.1	6.590	365.42	-1000000	-1000000	-1000000	-1000000	
19.00	4.163	9689.6	6.590	365.34	-1000000	-1000000	-1000000	-1000000	
19.02	4.162	9682.0	6.589	365.05	-1000000	-1000000	-1000000	-1000000	
19.04	4.162	9674.3	6.589	365.01	-1000000	-1000000	-1000000	-1000000	
19.06	4.162	9666.3	6.588	364.88	-1000000	-1000000	-1000000	-1000000	
19.08	4.162	9658.4	6.588	364.76	-1000000	-1000000	-1000000	-1000000	
19.10	4.162	9650.1	6.588	364.62	-1000000	-1000000	-1000000	-1000000	
19.12	4.162	9641.2	6.587	364.31	-1000000	-1000000	-1000000	-1000000	
19.14	4.162	9632.4	6.587	364.20	-1000000	-1000000	-1000000	-1000000	
19.16	4.162	9623.6	6.586	364.15	-1000000	-1000000	-1000000	-1000000	
19.18	4.162	9614.9	6.586	364.00	-1000000	-1000000	-1000000	-1000000	
19.20	4.162	9606.3	6.585	363.84	-1000000	-1000000	-1000000	-1000000	
19.22	4.161	9598.0	6.585	363.87	-1000000	-1000000	-1000000	-1000000	
19.24	4.161	9589.8	6.584	363.83	-1000000	-1000000	-1000000	-1000000	
19.26	4.161	9580.8	6.584	363.81	-1000000	-1000000	-1000000	-1000000	
19.28	4.161	9571.5	6.583	363.76	-1000000	-1000000	-1000000	-1000000	
19.30	4.161	9561.9	6.583	363.70	-1000000	-1000000	-1000000	-1000000	
19.32	4.161	9551.9	6.582	363.57	-1000000	-1000000	-1000000	-1000000	
19.34	4.161	9542.0	6.582	363.32	-1000000	-1000000	-1000000	-1000000	
19.36	4.161	9532.1	6.581	363.28	-1000000	-1000000	-1000000	-1000000	
19.38	4.161	9521.9	6.581	363.33	-1000000	-1000000	-1000000	-1000000	
19.40	4.161	9511.6	6.580	363.26	-1000000	-1000000	-1000000	-1000000	
19.42	4.160	9501.5	6.579	363.10	-1000000	-1000000	-1000000	-1000000	
19.44	4.160	9491.6	6.579	363.08	-1000000	-1000000	-1000000	-1000000	
19.46	4.160	9481.2	6.578	363.11	-1000000	-1000000	-1000000	-1000000	
19.48	4.160	9470.2	6.578	362.96	-1000000	-1000000	-1000000	-1000000	
19.50	4.160	9459.0	6.577	362.77	-1000000	-1000000	-1000000	-1000000	
19.52	4.160	9447.8	6.577	362.48	-1000000	-1000000	-1000000	-1000000	
19.54	4.160	9436.4	6.576	362.26	-1000000	-1000000	-1000000	-1000000	
19.56	4.160	9424.8	6.575	362.18	-1000000	-1000000	-1000000	-1000000	
19.58	4.159	9413.1	6.575	362.10	-1000000	-1000000	-1000000	-1000000	
19.60	4.159	9401.2	6.574	361.85	-1000000	-1000000	-1000000	-1000000	
19.62	4.159	9389.1	6.573	361.69	-1000000	-1000000	-1000000	-1000000	
19.64	4.159	9376.8	6.573	361.95	-1000000	-1000000	-1000000	-1000000	
19.66	4.159	9364.4	6.572	362.06	-1000000	-1000000	-1000000	-1000000	
19.68	4.159	9352.1	6.572	361.80	-1000000	-1000000	-1000000	-1000000	
19.70	4.159	9339.8	6.571	361.51	-1000000	-1000000	-1000000	-1000000	
19.72	4.159	9327.2	6.570	361.36	-1000000	-1000000	-1000000	-1000000	
19.74	4.158	9314.3	6.570	361.38	-1000000	-1000000	-1000000	-1000000	
19.76	4.158	9301.5	6.569	361.49	-1000000	-1000000	-1000000	-1000000	
19.78	4.158	9288.9	6.568	361.33	-1000000	-1000000	-1000000	-1000000	
19.80	4.158	9275.8	6.568	360.95	-1000000	-1000000	-1000000	-1000000	
19.82	4.158	9261.9	6.567	360.76	-1000000	-1000000	-1000000	-1000000	
19.84	4.158	9247.9	6.566	360.87	-1000000	-1000000	-1000000	-1000000	
19.86	4.158	9234.0	6.566	360.99	-1000000	-1000000	-1000000	-1000000	
19.88	4.157	9220.0	6.565	360.87	-1000000	-1000000	-1000000	-1000000	
19.90	4.157	9205.9	6.564	360.48	-1000000	-1000000	-1000000	-1000000	
19.92	4.157	9192.1	6.563	360.36	-1000000	-1000000	-1000000	-1000000	
19.94	4.157	9178.2	6.563	360.35	-1000000	-1000000	-1000000	-1000000	
19.96	4.157	9164.1	6.562	360.50	-1000000	-1000000	-1000000	-1000000	
19.98	4.157	9149.9	6.561	360.45	-1000000	-1000000	-1000000	-1000000	
20.00	4.156	9135.2	6.560	360.15	-1000000	-1000000	-1000000	-1000000	
20.02	4.156	9120.0	6.560	360.06	-1000000	-1000000	-1000000	-1000000	
20.04	4.156	9104.9	6.559	360.07	-1000000	-1000000	-1000000	-1000000	
20.06	4.156	9089.9	6.558	359.94	-1000000	-1000000	-1000000	-1000000	
20.08	4.156	9074.8	6.557	359.88	-1000000	-1000000	-1000000	-1000000	
20.10	4.156	9059.5	6.557	359.65	-1000000	-1000000	-1000000	-1000000	
20.12	4.155	9044.5	6.556	359.52	-1000000	-1000000	-1000000	-1000000	
20.14	4.155	9029.6	6.555	359.28	-1000000	-1000000	-1000000	-1000000	
20.16	4.155	9014.5	6.554	359.07	-1000000	-1000000	-1000000	-1000000	
20.18	4.155	8998.9	6.553	359.35	-1000000	-1000000	-1000000	-1000000	
20.20	4.155	8983.5	6.552	359.39	-1000000	-1000000	-1000000	-1000000	
20.22	4.155	8968.1	6.552	359.09	-1000000	-1000000	-1000000	-1000000	
20.24	4.154	8952.6	6.551	358.94	-1000000	-1000000	-1000000	-1000000	
20.26	4.154	8936.5	6.550	358.82	-1000000	-1000000	-1000000	-1000000	
20.28	4.154	8920.6	6.549	358.47	-1000000	-1000000	-1000000	-1000000	
20.30	4.154	8904.5	6.548	358.46	-1000000	-1000000	-1000000	-1000000	
20.32	4.154	8887.9	6.547	358.52	-1000000	-1000000	-1000000	-1000000	
20.34	4.154	8871.1	6.547	358.36	-1000000	-1000000	-1000000	-1000000	
20.36	4.153	8853.8	6.546	358.22	-1000000	-1000000	-1000000	-1000000	
20.38	4.153	8836.1	6.545	358.34	-1000000	-1000000	-1000000	-1000000	
20.40	4.153	8818.2	6.544	358.35	-1000000	-1000000	-1000000	-1000000	
20.42	4.153	8800.7	6.543	358.17	-1000000	-1000000	-1000000	-1000000	
20.44	4.153	8783.4	6.542	357.91	-1000000	-1000000	-1000000	-1000000	
20.46	4.152	8765.7	6.541	357.76	-1000000	-1000000	-1000000	-1000000	
20.48	4.152	8748.2	6.540	357.87	-1000000	-1000000	-1000000	-1000000	
20.50	4.152	8730.7	6.539	357.78	-1000000	-1000000	-1000000	-1000000	
20.52	4.152	8713.0	6.538	357.62	-1000000	-1000000	-1000000	-1000000	
20.54	4.152	8695.2	6.537	357.39	-1000000	-1000000	-1000000	-1000000	
20.56	4.151	8677.7	6.537	357.23	-1000000	-1000000	-1000000	-1000000	
20.58	4.151	8659.7	6.536	357.20	-1000000	-1000000	-1000000	-1000000	
20.60	4.151	8641.1	6.535	357.00	-1000000	-1000000	-1000000	-1000000	
20.62	4.151	8622.4	6.534	356.86	-1000000	-1000000	-1000000	-1000000	
20.64	4.151	8603.9	6.533	356.84	-1000000	-1000000	-1000000	-1000000	
20.66	4.151	8585.3	6.532	356.90	-1000000	-1000000	-1000000	-1000000	
20.68	4.150	8566.7	6.531	356.76	-1000000	-1000000	-1000000	-1000000	
20.70	4.150	8547.8	6.530	356.45	-1000000	-1000000	-1000000	-1000000	
20.72	4.150	8528.6	6.529	356.26	-1000000	-1000000	-1000000	-1000000	
20.74	4.150	8509.3	6.528	356.31	-1000000	-1000000	-1000000	-1000000	
20.76	4.149	8489.9	6.527	356.49	-1000000	-1000000	-1000000	-1000000	
20.78	4.149	8470.8	6.526	356.55	-1000000	-1000000	-1000000	-1000000	
20.80	4.149	8451.7	6.525	356.48	-1000000	-1000000	-1000000	-1000000	
20.82	4.149	8432.1	6.524	356.28	-1000000	-1000000	-1000000	-1000000	
20.84	4.149	8412.5	6.523	356.10	-1000000	-1000000	-1000000	-1000000	
20.86	4.148	8393.1	6.522	356.02	-1000000	-1000000	-1000000	-1000000	
20.88	4.148	8373.4	6.521	355.71	-1000000	-1000000	-1000000	-1000000	
20.90	4.148	8353.2	6.520	355.49	-1000000	-1000000	-1000000	-1000000	
20.92	4.148	8333.3	6.519	355.38	-1000000	-1000000	-1000000	-1000000	
20.94	4.148	8313.4	6.517	355.46	-1000000	-1000000	-1000000	-1000000	
20.96	4.147	8294.0	6.516	355.70	-1000000	-1000000	-1000000	-1000000	
20.98	4.147	8274.5	6.515	355.63	-1000000	-1000000	-1000000	-1000000	
21.00	4.147	8254.5	6.514	355.51	-1000000	-1000000	-1000000	-1000000	
21.02	4.147	8233.6	6.513	355.43	-1000000	-1000000	-1000000	-1000000	
21.04	4.147	8212.8	6.512	355.52	-1000000	-1000000	-1000000	-1000000	
21.06	4.146	8191.9	6.511	355.39	-1000000	-1000000	-1000000	-1000000	
21.08	4.146	8171.0	6.510	355.26	-1000000	-1000000	-1000000	-1000000	
21.10	4.146	8150.2	6.509	355.07	-1000000	-1000000	-1000000	-1000000	
21.12	4.146	8129.0	6.507	354.80	-1000000	-1000000	-1000000	-1000000	
21.14	4.145	8107.6	6.506	354.76	-1000000	-1000000	-1000000	-1000000	
21.16	4.145	8086.2	6.505	354.62	-1000000	-1000000	-1000000	-1000000	
21.18	4.145	8064.7	6.504	354.38	-1000000	-1000000	-1000000	-1000000	
21.20	4.145	8043.1	6.503	354.43	-1000000	-1000000	-1000000	-1000000	
21.22	4.145	8021.3	6.502	354.30	-1000000	-1000000	-1000000	-1000000	
21.24	4.144	7999.3	6.501	354.21	-1000000	-1000000	-1000000	-1000000	
21.26	4.144	7977.0	6.499	354.45	-1000000	-1000000	-1000000	-1000000	
21.28	4.144	7954.5	6.498	354.50	-1000000	-1000000	-1000000	-1000000	
21.30	4.144	7932.0	6.497	354.14	-1000000	-1000000	-1000000	-1000000	
21.32	4.143	7909.7	6.496	353.77	-1000000	-1000000	-1000000	-1000000	
21.34	4.143	7887.4	6.495	353.74	-1000000	-1000000	-1000000	-1000000	
21.36	4.143	7864.6	6.494	354.16	-1000000	-1000000	-1000000	-1000000	
21.38	4.143	7841.9	6.492	354.06	-1000000	-1000000	-1000000	-1000000	
21.40	4.142	7819.1	6.491	353.74	-1000000	-1000000	-1000000	-1000000	
21.42	4.142	7795.9	6.490	353.54	-1000000	-1000000	-1000000	-1000000	
21.44	4.142	7772.3	6.488	353.39	-1000000	-1000000	-1000000	-1000000	
21.46	4.142	7748.8	6.487	353.15	-1000000	-1000000	-1000000	-1000000	
21.48	4.141	7725.9	6.486	353.14	-1000000	-1000000	-1000000	-1000000	
21.50	4.141	7703.0	6.485	353.10	-1000000	-1000000	-1000000	-1000000	
21.52	4.141	7679.6	6.484	352.93	-1000000	-1000000	-1000000	-1000000	
21.54	4.141	7655.8	6.483	353.01	-1000000	-1000000	-1000000	-1000000	
21.56	4.140	7631.8	6.481	352.94	-1000000	-1000000	-1000000	-1000000	
21.58	4.140	7607.8	6.480	352.77	-1000000	-1000000	-1000000	-1000000	
21.60	4.140	7583.7	6.478	352.81	-1000000	-1000000	-1000000	-1000000	
21.62	4.140	7559.4	6.477	353.00	-1000000	-1000000	-1000000	-1000000	
21.64	4.139	7535.0	6.476	353.01	-1000000	-1000000	-1000000	-1000000	
21.66	4.139	7510.7	6.474	352.75	-1000000	-1000000	-1000000	-1000000	
21.68	4.139	7486.4	6.473	352.41	-1000000	-1000000	-1000000	-1000000	
21.70	4.139	7462.0	6.472	352.42	-1000000	-1000000	-1000000	-1000000	
21.72	4.138	7437.3	6.470	352.52	-1000000	-1000000	-1000000	-1000000	
21.74	4.138	7412.2	6.469	352.69	-1000000	-1000000	-1000000	-1000000	
21.76	4.138	7386.7	6.468	352.69	-1000000	-1000000	-1000000	-1000000	
21.78	4.138	7361.2	6.466	352.68	-1000000	-1000000	-1000000	-1000000	
21.80	4.137	7335.8	6.465	352.45	-1000000	-1000000	-1000000	-1000000	
21.82	4.137	7310.2	6.464	351.96	-1000000	-1000000	-1000000	-1000000	
21.84	4.137	7284.5	6.462	351.54	-1000000	-1000000	-1000000	-1000000	
21.86	4.136	7258.7	6.461	351.43	-1000000	-1000000	-1000000	-1000000	
21.88	4.136	7232.7	6.460	351.77	-1000000	-1000000	-1000000	-1000000	
21.90	4.136	7206.9	6.458	351.91	-1000000	-1000000	-1000000	-1000000	
21.92	4.136	7180.7	6.457	351.79	-1000000	-1000000	-1000000	-1000000	
21.94	4.135	7154.5	6.456	351.67	-1000000	-1000000	-1000000	-1000000	
21.96	4.135	7128.3	6.454	351.73	-1000000	-1000000	-1000000	-1000000	
21.98	4.135	7102.3	6.453	351.45	-1000000	-1000000	-1000000	-1000000	
22.00	4.135	7076.1	6.452	351.11	-1000000	-1000000	-1000000	-1000000	
22.02	4.134	7049.7	6.450	351.06	-1000000	-1000000	-1000000	-1000000	
22.04	4.134	7023.5	6.449	351.19	-1000000	-1000000	-1000000	-1000000	
22.06	4.134	6997.4	6.447	350.90	-1000000	-1000000	-1000000	-1000000	
22.08	4.134	6970.9	6.446	350.64	-1000000	-1000000	-1000000	-1000000	
22.10	4.133	6944.1	6.444	350.60	-1000000	-1000000	-1000000	-1000000	
22.12	4.133	6917.4	6.443	350.50	-1000000	-1000000	-1000000	-1000000	
22.14	4.133	6890.3	6.441	350.26	-1000000	-1000000	-1000000	-1000000	
22.16	4.132	6862.7	6.440	350.23	-1000000	-1000000	-1000000	-1000000	
22.18	4.132	6835.1	6.438	350.09	-1000000	-1000000	-1000000	-1000000	
22.20	4.132	6807.8	6.437	350.15	-1000000	-1000000	-1000000	-1000000	
22.22	4.132	6780.3	6.435	350.52	-1000000	-1000000	-1000000	-1000000	
22.24	4.131	6752.6	6.434	350.39	-1000000	-1000000	-1000000	-1000000	
22.26	4.131	6724.7	6.432	350.16	-1000000	-1000000	-1000000	-1000000	
22.28	4.131	6696.7	6.431	350.06	-1000000	-1000000	-1000000	-1000000	
22.30	4.130	6668.7	6.429	349.76	-1000000	-1000000	-1000000	-1000000	
22.32	4.130	6640.4	6.428	349.45	-1000000	-1000000	-1000000	-1000000	
22.34	4.130	6611.9	6.426	349.51	-1000000	-1000000	-1000000	-1000000	
22.36	4.129	6583.4	6.425	349.63	-1000000	-1000000	-1000000	-1000000	
22.38	4.129	6555.0	6.423	349.61	-1000000	-1000000	-1000000	-1000000	
22.40	4.129	6526.6	6.421	349.51	-1000000	-1000000	-1000000	-1000000	
22.42	4.129	6498.1	6.420	349.29	-1000000	-1000000	-1000000	-1000000	
22.44	4.128	6469.3	6.419	349.27	-1000000	-1000000	-1000000	-1000000	
22.46	4.128	6440.2	6.417	349.38	-1000000	-1000000	-1000000	-1000000	
22.48	4.128	6411.0	6.415	349.43	-1000000	-1000000	-1000000	-1000000	
22.50	4.127	6381.8	6.414	349.39	-1000000	-1000000	-1000000	-1000000	
22.52	4.127	6352.4	6.412	349.42	-1000000	-1000000	-1000000	-1000000	
22.54	4.127	6322.7	6.411	349.25	-1000000	-1000000	-1000000	-1000000	
22.56	4.127	6292.4	6.409	349.18	-1000000	-1000000	-1000000	-1000000	
22.58	4.126	6261.3	6.407	348.85	-1000000	-1000000	-1000000	-1000000	
22.60	4.126	6229.7	6.406	348.98	-1000000	-1000000	-1000000	-1000000	
22.62	4.126	6197.4	6.404	349.08	-1000000	-1000000	-1000000	-1000000	
22.64	4.126	6164.3	6.402	349.38	-1000000	-1000000	-1000000	-1000000	
22.66	4.125	6129.7	6.401	349.82	-1000000	-1000000	-1000000	-1000000	
22.68	4.125	6093.0	6.399	349.87	-1000000	-1000000	-1000000	-1000000	
22.70	4.125	6054.1	6.397	350.06	-1000000	-1000000	-1000000	-1000000	
22.72	4.125	6014.7	6.396	350.23	-1000000	-1000000	-1000000	-1000000	
22.74	4.124	5975.5	6.394	350.43	-1000000	-1000000	-1000000	-1000000	
22.76	4.124	5936.9	6.393	350.31	-1000000	-1000000	-1000000	-1000000	
22.78	4.124	5899.9	6.391	350.29	-1000000	-1000000	-1000000	-1000000	
22.80	4.123	5864.6	6.389	350.60	-1000000	-1000000	-1000000	-1000000	
22.82	4.123	5830.5	6.387	350.78	-1000000	-1000000	-1000000	-1000000	
22.84	4.123	5797.3	6.386	350.52	-1000000	-1000000	-1000000	-1000000	
22.86	4.122	5764.8	6.384	350.52	-1000000	-1000000	-1000000	-1000000	
22.88	4.122	5732.3	6.382	350.89	-1000000	-1000000	-1000000	-1000000	
22.90	4.122	5700.0	6.381	351.13	-1000000	-1000000	-1000000	-1000000	
22.92	4.121	5667.8	6.379	350.83	-1000000	-1000000	-1000000	-1000000	
22.94	4.121	5635.8	6.377	350.58	-1000000	-1000000	-1000000	-1000000	
22.96	4.121	5603.6	6.375	350.42	-1000000	-1000000	-1000000	-1000000	
22.98	4.121	5571.4	6.374	350.20	-1000000	-1000000	-1000000	-1000000	
23.00	4.120	5539.0	6.372	349.94	-1000000	-1000000	-1000000	-1000000	
23.02	4.120	5506.7	6.370	350.27	-1000000	-1000000	-1000000	-1000000	
23.04	4.119	5474.4	6.368	350.63	-1000000	-1000000	-1000000	-1000000	
23.06	4.119	5442.2	6.367	350.60	-1000000	-1000000	-1000000	-1000000	
23.08	4.119	5410.0	6.365	350.37	-1000000	-1000000	-1000000	-1000000	
23.10	4.119	5377.7	6.363	350.20	-1000000	-1000000	-1000000	-1000000	
23.12	4.118	5345.5	6.361	350.03	-1000000	-1000000	-1000000	-1000000	
23.14	4.118	5313.2	6.359	350.16	-1000000	-1000000	-1000000	-1000000	
23.16	4.117	5280.9	6.358	350.33	-1000000	-1000000	-1000000	-1000000	
23.18	4.117	5248.4	6.356	349.97	-1000000	-1000000	-1000000	-1000000	
23.20	4.117	5215.8	6.354	349.76	-1000000	-1000000	-1000000	-1000000	
23.22	4.116	5183.2	6.352	349.71	-1000000	-1000000	-1000000	-1000000	
23.24	4.116	5150.8	6.350	349.61	-1000000	-1000000	-1000000	-1000000	
23.26	4.116	5118.7	6.349	349.70	-1000000	-1000000	-1000000	-1000000	
23.28	4.115	5086.4	6.347	349.79	-1000000	-1000000	-1000000	-1000000	
23.30	4.115	5053.9	6.345	349.83	-1000000	-1000000	-1000000	-1000000	
23.32	4.115	5021.2	6.343	349.72	-1000000	-1000000	-1000000	-1000000	
23.34	4.114	4988.0	6.341	349.64	-1000000	-1000000	-1000000	-1000000	
23.36	4.114	4954.5	6.339	349.45	-1000000	-1000000	-1000000	-1000000	
23.38	4.114	4920.8	6.337	349.33	-1000000	-1000000	-1000000	-1000000	
23.40	4.113	4887.2	6.335	349.20	-1000000	-1000000	-1000000	-1000000	
23.42	4.113	4853.3	6.333	349.28	-1000000	-1000000	-1000000	-1000000	
23.44	4.113	4818.7	6.332	349.07	-1000000	-1000000	-1000000	-1000000	
23.46	4.112	4783.6	6.330	349.12	-1000000	-1000000	-1000000	-1000000	
23.48	4.112	4747.6	6.328	349.31	-1000000	-1000000	-1000000	-1000000	
23.50	4.112	4710.7	6.326	349.21	-1000000	-1000000	-1000000	-1000000	
23.52	4.111	4673.5	6.324	349.27	-1000000	-1000000	-1000000	-1000000	
23.54	4.111	4635.8	6.322	349.90	-1000000	-1000000	-1000000	-1000000	
23.56	4.111	4597.8	6.320	350.71	-1000000	-1000000	-1000000	-1000000	
23.58	4.110	4559.6	6.318	350.71	-1000000	-1000000	-1000000	-1000000	
23.60	4.110	4521.1	6.316	350.07	-1000000	-1000000	-1000000	-1000000	
23.62	4.110	4482.9	6.314	349.57	-1000000	-1000000	-1000000	-1000000	
23.64	4.109	4444.9	6.312	349.59	-1000000	-1000000	-1000000	-1000000	
23.66	4.109	4407.3	6.310	349.50	-1000000	-1000000	-1000000	-1000000	
23.68	4.109	4370.5	6.308	349.50	-1000000	-1000000	-1000000	-1000000	
23.70	4.108	4334.3	6.306	349.83	-1000000	-1000000	-1000000	-1000000	
23.72	4.108	4298.2	6.304	349.94	-1000000	-1000000	-1000000	-1000000	
23.74	4.108	4262.0	6.302	349.96	-1000000	-1000000	-1000000	-1000000	
23.76	4.107	4225.6	6.300	350.11	-1000000	-1000000	-1000000	-1000000	
23.78	4.107	4189.3	6.298	350.01	-1000000	-1000000	-1000000	-1000000	
23.80	4.107	4153.3	6.296	349.84	-1000000	-1000000	-1000000	-1000000	
23.82	4.106	4116.9	6.294	349.84	-1000000	-1000000	-1000000	-1000000	
23.84	4.106	4080.1	6.292	349.78	-1000000	-1000000	-1000000	-1000000	
23.86	4.105	4043.0	6.290	349.80	-1000000	-1000000	-1000000	-1000000	
23.88	4.105	4005.9	6.288	349.90	-1000000	-1000000	-1000000	-1000000	
23.90	4.105	3969.0	6.286	349.69	-1000000	-1000000	-1000000	-1000000	
23.92	4.104	3932.2	6.284	349.64	-1000000	-1000000	-1000000	-1000000	
23.94	4.104	3895.3	6.282	349.96	-1000000	-1000000	-1000000	-1000000	
23.96	4.104	3858.4	6.280	350.04	-1000000	-1000000	-1000000	-1000000	
23.98	4.103	3821.3	6.278	350.03	-1000000	-1000000	-1000000	-1000000	
24.00	4.103	3784.2	6.276	349.97	-1000000	-1000000	-1000000	-1000000	
24.02	4.102	3746.6	6.274	349.88	-1000000	-1000000	-1000000	-1000000	
24.04	4.102	3708.9	6.271	349.89	-1000000	-1000000	-1000000	-1000000	
24.06	4.102	3671.2	6.269	349.74	-1000000	-1000000	-1000000	-1000000	
24.08	4.101	3633.3	6.267	349.72	-1000000	-1000000	-1000000	-1000000	
24.10	4.101	3595.3	6.265	349.80	-1000000	-1000000	-1000000	-1000000	
24.12	4.100	3557.2	6.263	349.72	-1000000	-1000000	-1000000	-1000000	
24.14	4.100	3519.1	6.261	349.52	-1000000	-1000000	-1000000	-1000000	
24.16	4.100	3481.3	6.259	349.46	-1000000	-1000000	-1000000	-1000000	
24.18	4.099	3443.7	6.257	349.41	-1000000	-1000000	-1000000	-1000000	
24.20	4.099	3405.9	6.254	349.15	-1000000	-1000000	-1000000	-1000000	
24.22	4.098	3368.4	6.252	349.13	-1000000	-1000000	-1000000	-1000000	
24.24	4.098	3330.8	6.250	349.34	-1000000	-1000000	-1000000	-1000000	
24.26	4.098	3293.2	6.248	349.53	-1000000	-1000000	-1000000	-1000000	
24.28	4.097	3255.3	6.246	349.72	-1000000	-1000000	-1000000	-1000000	
24.30	4.097	3217.2	6.244	349.83	-1000000	-1000000	-1000000	-1000000	
24.32	4.097	3178.6	6.242	350.24	-1000000	-1000000	-1000000	-1000000	
24.34	4.096	3139.3	6.239	349.99	-1000000	-1000000	-1000000	-1000000	
24.36	4.096	3099.6	6.237	349.66	-1000000	-1000000	-1000000	-1000000	
24.38	4.095	3058.9	6.235	349.82	-1000000	-1000000	-1000000	-1000000	
24.40	4.095	3017.9	6.233	350.04	-1000000	-1000000	-1000000	-1000000	
24.42	4.095	2976.8	6.230	349.80	-1000000	-1000000	-1000000	-1000000	
24.44	4.094	2935.6	6.228	349.51	-1000000	-1000000	-1000000	-1000000	
24.46	4.094	2894.3	6.226	349.93	-1000000	-1000000	-1000000	-1000000	
24.48	4.093	2853.4	6.224	350.28	-1000000	-1000000	-1000000	-1000000	
24.50	4.093	2812.8	6.221	350.38	-1000000	-1000000	-1000000	-1000000	
24.52	4.093	2772.4	6.219	350.41	-1000000	-1000000	-1000000	-1000000	
24.54	4.092	2732.7	6.217	350.07	-1000000	-1000000	-1000000	-1000000	
24.56	4.092	2693.4	6.215	349.54	-1000000	-1000000	-1000000	-1000000	
24.58	4.091	2654.1	6.212	349.60	-1000000	-1000000	-1000000	-1000000	
24.60	4.091	2614.6	6.210	349.80	-1000000	-1000000	-1000000	-1000000	
24.62	4.090	2575.2	6.208	350.03	-1000000	-1000000	-1000000	-1000000	
24.64	4.090	2536.2	6.206	350.09	-1000000	-1000000	-1000000	-1000000	
24.66	4.089	2496.9	6.203	350.26	-1000000	-1000000	-1000000	-1000000	
24.68	4.089	2456.9	6.201	350.23	-1000000	-1000000	-1000000	-1000000	
24.70	4.089	2416.7	6.199	350.06	-1000000	-1000000	-1000000	-1000000	
24.72	4.088	2376.4	6.196	349.97	-1000000	-1000000	-1000000	-1000000	
24.74	4.088	2335.5	6.194	349.64	-1000000	-1000000	-1000000	-1000000	
24.76	4.087	2294.6	6.192	349.54	-1000000	-1000000	-1000000	-1000000	
24.78	4.087	2254.2	6.189	349.81	-1000000	-1000000	-1000000	-1000000	
24.80	4.086	2213.8	6.187	349.90	-1000000	-1000000	-1000000	-1000000	
24.82	4.086	2172.9	6.185	349.93	-1000000	-1000000	-1000000	-1000000	
24.84	4.086	2132.0	6.182	349.76	-1000000	-1000000	-1000000	-1000000	
24.86	4.085	2091.4	6.180	349.45	-1000000	-1000000	-1000000	-1000000	
24.88	4.085	2050.6	6.177	349.62	-1000000	-1000000	-1000000	-1000000	
24.90	4.084	2008.7	6.175	349.85	-1000000	-1000000	-1000000	-1000000	
24.92	4.084	1966.4	6.173	349.77	-1000000	-1000000	-1000000	-1000000	
24.94	4.083	1924.1	6.170	349.76	-1000000	-1000000	-1000000	-1000000	
24.96	4.083	1881.7	6.168	349.47	-1000000	-1000000	-1000000	-1000000	
24.98	4.082	1839.2	6.165	349.07	-1000000	-1000000	-1000000	-1000000	
25.00	4.082	1796.7	6.163	349.30	-1000000	-1000000	-1000000	-1000000	
25.02	4.081	1754.2	6.161	349.85	-1000000	-1000000	-1000000	-1000000	
25.04	4.081	1711.3	6.158	350.02	-1000000	-1000000	-1000000	-1000000	
25.06	4.080	1668.6	6.156	350.07	-1000000	-1000000	-1000000	-1000000	
25.08	4.080	1625.9	6.153	350.10	-1000000	-1000000	-1000000	-1000000	
25.10	4.080	1583.3	6.151	350.37	-1000000	-1000000	-1000000	-1000000	
25.12	4.079	1540.4	6.148	350.61	-1000000	-1000000	-1000000	-1000000	
25.14	4.079	1497.7	6.146	350.48	-1000000	-1000000	-1000000	-1000000	
25.16	4.078	1454.7	6.143	350.19	-1000000	-1000000	-1000000	-1000000	
25.18	4.078	1411.3	6.141	350.06	-1000000	-1000000	-1000000	-1000000	
25.20	4.077	1367.7	6.138	349.95	-1000000	-1000000	-1000000	-1000000	
25.22	4.076	1324.5	6.136	349.93	-1000000	-1000000	-1000000	-1000000	
25.24	4.076	1281.7	6.133	350.08	-1000000	-1000000	-1000000	-1000000	
25.26	4.075	1238.4	6.131	350.06	-1000000	-1000000	-1000000	-1000000	
25.28	4.075	1194.1	6.128	350.03	-1000000	-1000000	-1000000	-1000000	
25.30	4.074	1149.5	6.126	349.96	-1000000	-1000000	-1000000	-1000000	
25.32	4.074	1105.0	6.123	350.12	-1000000	-1000000	-1000000	-1000000	
25.34	4.073	1060.4	6.121	350.52	-1000000	-1000000	-1000000	-1000000	
25.36	4.073	1015.7	6.118	350.45	-1000000	-1000000	-1000000	-1000000	
25.38	4.072	971.54	6.116	350.12	-1000000	-1000000	-1000000	-1000000	
25.40	4.072	927.29	6.113	350.23	-1000000	-1000000	-1000000	-1000000	
25.42	4.071	882.98	6.111	350.28	-1000000	-1000000	-1000000	-1000000	
25.44	4.070	838.34	6.108	350.32	-1000000	-1000000	-1000000	-1000000	
25.46	4.070	793.05	6.106	350.19	-1000000	-1000000	-1000000	-1000000	
25.48	4.069	747.35	6.103	349.70	-1000000	-1000000	-1000000	-1000000	
25.50	4.069	701.53	6.100	349.50	-1000000	-1000000	-1000000	-1000000	
25.52	4.068	655.57	6.098	349.89	-1000000	-1000000	-1000000	-1000000	
25.54	4.068	609.53	6.095	350.13	-1000000	-1000000	-1000000	-1000000	
25.56	4.067	563.13	6.092	349.94	-1000000	-1000000	-1000000	-1000000	
25.58	4.066	516.23	6.090	349.43	-1000000	-1000000	-1000000	-1000000	
25.60	4.066	468.98	6.088	349.28	-1000000	-1000000	-1000000	-1000000	
25.62	4.065	421.32	6.085	349.57	-1000000	-1000000	-1000000	-1000000	
25.64	4.065	373.89	6.082	349.88	-1000000	-1000000	-1000000	-1000000	
25.66	4.064	326.60	6.079	350.03	-1000000	-1000000	-1000000	-1000000	
25.68	4.063	278.82	6.077	350.06	-1000000	-1000000	-1000000	-1000000	
25.70	4.063	230.38	6.074	349.98	-1000000	-1000000	-1000000	-1000000	
25.72	4.062	181.40	6.071	350.00	-1000000	-1000000	-1000000	-1000000	
25.74	4.062	131.50	6.069	349.82	-1000000	-1000000	-1000000	-1000000	
25.76	4.061	81.61	6.066	349.72	-1000000	-1000000	-1000000	-1000000	
25.78	4.061	34.69	6.063	349.80	-1000000	-1000000	-1000000	-1000000	
25.80	4.060	-7.678	6.061	350.00	-1000000	-1000000	-1000000	-1000000	
25.82	4.060	-42.60	6.059	350.20	-1000000	-1000000	-1000000	-1000000	
25.84	4.060	-67.94	6.057	350.10	-1000000	-1000000	-1000000	-1000000	
25.86	4.060	-83.03	6.057	349.76	-1000000	-1000000	-1000000	-1000000	
25.88	4.060	-89.50	6.056	349.70	-1000000	-1000000	-1000000	-1000000	
25.90	4.060	-91.11	6.056	349.99	-1000000	-1000000	-1000000	-1000000	
25.92	4.060	-91.32	6.056	350.25	-1000000	-1000000	-1000000	-1000000	
25.94	4.060	-91.33	6.056	350.05	-1000000	-1000000	-1000000	-1000000	
25.96	4.060	-91.43	6.056	350.05	-1000000	-1000000	-1000000	-1000000	
25.98	4.060	-91.58	6.056	350.13	-1000000	-1000000	-1000000	-1000000	
26.00	4.060	-91.43	6.056	349.74	-1000000	-1000000	-1000000	-1000000	
26.02	4.060	-91.22	6.056	349.70	-1000000	-1000000	-1000000	-1000000	
26.04	4.060	-91.28	6.056	349.92	-1000000	-1000000	-1000000	-1000000	
26.06	4.060	-91.32	6.056	349.71	-1000000	-1000000	-1000000	-1000000	
26.08	4.060	-91.27	6.056	349.47	-1000000	-1000000	-1000000	-1000000	
26.10	4.060	-91.40	6.056	349.36	-1000000	-1000000	-1000000	-1000000	
26.12	4.060	-91.57	6.056	349.29	-1000000	-1000000	-1000000	-1000000	
26.14	4.060	-91.40	6.056	349.42	-1000000	-1000000	-1000000	-1000000	
26.16	4.060	-91.26	6.056	349.51	-1000000	-1000000	-1000000	-1000000	
26.18	4.060	-91.42	6.056	349.55	-1000000	-1000000	-1000000	-1000000	
26.20	4.060	-91.55	6.056	349.66	-1000000	-1000000	-1000000	-1000000	
26.22	4.060	-91.46	6.056	349.61	-1000000	-1000000	-1000000	-1000000	
26.24	4.060	-91.42	6.056	349.51	-1000000	-1000000	-1000000	-1000000	
26.26	4.060	-91.50	6.056	349.40	-1000000	-1000000	-1000000	-1000000	
26.28	4.060	-91.45	6.056	349.61	-1000000	-1000000	-1000000	-1000000	
26.30	4.060	-91.41	6.056	349.94	-1000000	-1000000	-1000000	-1000000	
26.32	4.060	-91.46	6.056	350.10	-1000000	-1000000	-1000000	-1000000	
26.34	4.060	-91.44	6.056	350.28	-1000000	-1000000	-1000000	-1000000	
26.36	4.060	-91.41	6.056	350.28	-1000000	-1000000	-1000000	-1000000	
26.38	4.060	-88.78	6.056	349.99	-1000000	-1000000	-1000000	-1000000	
26.40	4.060	-73.41	6.056	350.04	-1000000	-1000000	-1000000	-1000000	
26.42	4.060	-58.39	6.056	350.21	-1000000	-1000000	-1000000	-1000000	
26.44	4.060	-52.04	6.056	350.21	-1000000	-1000000	-1000000	-1000000	
26.46	4.059	-50.14	6.056	350.14	-1000000	-1000000	-1000000	-1000000	
26.48	4.059	-48.72	6.056	350.08	-1000000	-1000000	-1000000	-1000000	
26.50	4.059	-47.12	6.056	350.34	-1000000	-1000000	-1000000	-1000000	
26.52	4.059	-45.33	6.056	350.30	-1000000	-1000000	-1000000	-1000000	
26.54	4.059	-43.10	6.056	349.64	-1000000	-1000000	-1000000	-1000000	
26.56	4.059	-40.52	6.056	349.52	-1000000	-1000000	-1000000	-1000000	
26.58	4.059	-37.99	6.056	349.59	-1000000	-1000000	-1000000	-1000000	
26.60	4.059	-35.32	6.056	349.67	-1000000	-1000000	-1000000	-1000000	
26.62	4.059	-32.97	6.056	349.88	-1000000	-1000000	-1000000	-1000000	
26.64	4.059	-30.63	6.056	350.25	-1000000	-1000000	-1000000	-1000000	
26.66	4.059	-28.77	6.056	350.02	-1000000	-1000000	-1000000	-1000000	
26.68	4.059	-27.01	6.056	349.58	-1000000	-1000000	-1000000	-1000000	
26.70	4.059	-25.82	6.056	349.41	-1000000	-1000000	-1000000	-1000000	
26.72	4.059	-24.73	6.056	349.55	-1000000	-1000000	-1000000	-1000000	
26.74	4.059	-24.53	6.056	349.90	-1000000	-1000000	-1000000	-1000000	
26.76	4.059	-24.08	6.056	350.00	-1000000	-1000000	-1000000	-1000000	
26.78	4.059	-23.77	6.056	349.92	-1000000	-1000000	-1000000	-1000000	
26.80	4.059	-22.83	6.056	349.88	-1000000	-1000000	-1000000	-1000000	
26.82	4.059	-22.47	6.056	349.69	-1000000	-1000000	-1000000	-1000000	
26.84	4.059	-21.53	6.056	349.64	-1000000	-1000000	-1000000	-1000000	
26.86	4.059	-20.66	6.056	349.69	-1000000	-1000000	-1000000	-1000000	
26.88	4.059	-19.85	6.056	349.66	-1000000	-1000000	-1000000	-1000000	
26.90	4.059	-18.44	6.056	349.35	-1000000	-1000000	-1000000	-1000000	
26.92	4.059	-17.28	6.056	349.01	-1000000	-1000000	-1000000	-1000000	
26.94	4.059	-15.38	6.056	348.93	-1000000	-1000000	-1000000	-1000000	
26.96	4.059	-12.96	6.056	349.04	-1000000	-1000000	-1000000	-1000000	
26.98	4.059	-11.29	6.056	348.93	-1000000	-1000000	-1000000	-1000000	
27.00	4.059	-9.893	6.056	348.78	-1000000	-1000000	-1000000	-1000000	
27.02	4.059	-7.836	6.056	348.91	-1000000	-1000000	-1000000	-1000000	
27.04	4.059	-5.184	6.056	348.86	-1000000	-1000000	-1000000	-1000000	
27.06	4.059	-2.587	6.056	348.80	-1000000	-1000000	-1000000	-1000000	
27.08	4.059	-0.4107	6.056	349.11	-1000000	-1000000	-1000000	-1000000	
27.10	4.059	1.768	6.056	349.17	-1000000	-1000000	-1000000	-1000000	
27.12	4.059	3.702	6.056	348.83	-1000000	-1000000	-1000000	-1000000	
27.14	4.059	5.513	6.056	348.85	-1000000	-1000000	-1000000	-1000000	
27.16	4.059	7.499	6.056	348.74	-1000000	-1000000	-1000000	-1000000	
27.18	4.059	9.068	6.056	348.47	-1000000	-1000000	-1000000	-1000000	
27.20	4.059	9.998	6.056	348.46	-1000000	-1000000	-1000000	-1000000	
27.22	4.059	11.20	6.056	348.50	-1000000	-1000000	-1000000	-1000000	
27.24	4.059	13.33	6.056	348.61	-1000000	-1000000	-1000000	-1000000	
27.26	4.059	16.52	6.056	348.49	-1000000	-1000000	-1000000	-1000000	
27.28	4.059	19.22	6.056	348.37	-1000000	-1000000	-1000000	-1000000	
27.30	4.059	20.81	6.056	348.57	-1000000	-1000000	-1000000	-1000000	
27.32	4.059	22.91	6.056	348.89	-1000000	-1000000	-1000000	-1000000	
27.34	4.059	24.84	6.056	348.62	-1000000	-1000000	-1000000	-1000000	
27.36	4.059	26.68	6.056	348.01	-1000000	-1000000	-1000000	-1000000	
27.38	4.059	28.68	6.056	347.25	-1000000	-1000000	-1000000	-1000000	
27.40	4.059	30.59	6.055	346.92	-1000000	-1000000	-1000000	-1000000	
27.42	4.059	32.45	6.055	347.39	-1000000	-1000000	-1000000	-1000000	
27.44	4.059	34.55	6.056	347.50	-1000000	-1000000	-1000000	-1000000	
27.46	4.058	36.65	6.056	346.99	-1000000	-1000000	-1000000	-1000000	
27.48	4.058	38.51	6.056	346.87	-1000000	-1000000	-1000000	-1000000	
27.50	4.058	40.25	6.056	347.24	-1000000	-1000000	-1000000	-1000000	
27.52	4.058	42.20	6.056	347.22	-1000000	-1000000	-1000000	-1000000	
27.54	4.058	44.20	6.056	347.17	-1000000	-1000000	-1000000	-1000000	
27.56	4.058	46.19	6.056	347.18	-1000000	-1000000	-1000000	-1000000	
27.58	4.058	48.25	6.056	346.99	-1000000	-1000000	-1000000	-1000000	
27.60	4.058	50.12	6.056	346.79	-1000000	-1000000	-1000000	-1000000	
27.62	4.058	52.03	6.056	346.62	-1000000	-1000000	-1000000	-1000000	
27.64	4.058	54.18	6.056	346.66	-1000000	-1000000	-1000000	-1000000	
27.66	4.058	56.01	6.056	346.85	-1000000	-1000000	-1000000	-1000000	
27.68	4.058	57.70	6.056	346.62	-1000000	-1000000	-1000000	-1000000	
27.70	4.058	59.43	6.056	346.62	-1000000	-1000000	-1000000	-1000000	
27.72	4.058	61.16	6.056	346.67	-1000000	-1000000	-1000000	-1000000	
27.74	4.058	63.25	6.056	346.50	-1000000	-1000000	-1000000	-1000000	
27.76	4.058	65.29	6.056	346.36	-1000000	-1000000	-1000000	-1000000	
27.78	4.058	67.26	6.056	346.25	-1000000	-1000000	-1000000	-1000000	
27.80	4.058	69.41	6.056	346.22	-1000000	-1000000	-1000000	-1000000	
27.82	4.058	71.61	6.056	346.24	-1000000	-1000000	-1000000	-1000000	
27.84	4.058	73.68	6.056	346.36	-1000000	-1000000	-1000000	-1000000	
27.86	4.058	75.44	6.056	346.23	-1000000	-1000000	-1000000	-1000000	
27.88	4.058	77.39	6.056	346.06	-1000000	-1000000	-1000000	-1000000	
27.90	4.058	79.40	6.056	345.99	-1000000	-1000000	-1000000	-1000000	
27.92	4.058	81.32	6.056	346.22	-1000000	-1000000	-1000000	-1000000	
27.94	4.058	83.48	6.056	346.31	-1000000	-1000000	-1000000	-1000000	
27.96	4.058	85.63	6.056	346.29	-1000000	-1000000	-1000000	-1000000	
27.98	4.058	87.44	6.056	346.15	-1000000	-1000000	-1000000	-1000000	
28.00	4.058	89.18	6.056	346.16	-1000000	-1000000	-1000000	-1000000	
28.02	4.058	90.85	6.056	346.01	-1000000	-1000000	-1000000	-1000000	
28.04	4.058	92.40	6.056	345.77	-1000000	-1000000	-1000000	-1000000	
28.06	4.058	93.97	6.056	345.52	-1000000	-1000000	-1000000	-1000000	
28.08	4.058	95.86	6.056	345.70	-1000000	-1000000	-1000000	-1000000	
28.10	4.058	97.85	6.056	345.75	-1000000	-1000000	-1000000	-1000000	
28.12	4.058	99.62	6.056	345.51	-1000000	-1000000	-1000000	-1000000	
28.14	4.058	101.49	6.056	345.36	-1000000	-1000000	-1000000	-1000000	
28.16	4.058	103.54	6.056	345.36	-1000000	-1000000	-1000000	-1000000	
28.18	4.058	105.10	6.056	344.93	-1000000	-1000000	-1000000	-1000000	
28.20	4.058	106.86	6.056	345.09	-1000000	-1000000	-1000000	-1000000	
28.22	4.058	108.76	6.056	345.61	-1000000	-1000000	-1000000	-1000000	
28.24	4.058	110.50	6.056	345.80	-1000000	-1000000	-1000000	-1000000	
28.26	4.058	112.51	6.056	345.29	-1000000	-1000000	-1000000	-1000000	
28.28	4.058	114.76	6.056	345.06	-1000000	-1000000	-1000000	-1000000	
28.30	4.058	116.62	6.056	344.95	-1000000	-1000000	-1000000	-1000000	
28.32	4.058	118.21	6.056	344.66	-1000000	-1000000	-1000000	-1000000	
28.34	4.058	120.03	6.056	344.59	-1000000	-1000000	-1000000	-1000000	
28.36	4.058	122.19	6.056	344.68	-1000000	-1000000	-1000000	-1000000	
28.38	4.058	124.19	6.056	344.73	-1000000	-1000000	-1000000	-1000000	
28.40	4.058	125.92	6.056	344.74	-1000000	-1000000	-1000000	-1000000	
28.42	4.058	127.03	6.056	344.60	-1000000	-1000000	-1000000	-1000000	
28.44	4.058	128.28	6.056	344.36	-1000000	-1000000	-1000000	-1000000	
28.46	4.058	129.88	6.056	344.14	-1000000	-1000000	-1000000	-1000000	
28.48	4.058	131.81	6.056	343.82	-1000000	-1000000	-1000000	-1000000	
28.50	4.057	133.60	6.056	343.74	-1000000	-1000000	-1000000	-1000000	
28.52	4.058	135.21	6.056	343.70	-1000000	-1000000	-1000000	-1000000	
28.54	4.058	136.72	6.056	344.00	-1000000	-1000000	-1000000	-1000000	
28.56	4.058	138.33	6.056	344.41	-1000000	-1000000	-1000000	-1000000	
28.58	4.058	140.01	6.056	344.21	-1000000	-1000000	-1000000	-1000000	
28.60	4.057	141.85	6.056	344.19	-1000000	-1000000	-1000000	-1000000	
28.62	4.057	143.54	6.056	344.48	-1000000	-1000000	-1000000	-1000000	
28.64	4.057	145.05	6.056	344.40	-1000000	-1000000	-1000000	-1000000	
28.66	4.057	146.44	6.056	344.23	-1000000	-1000000	-1000000	-1000000	
28.68	4.057	148.17	6.056	344.07	-1000000	-1000000	-1000000	-1000000	
28.70	4.057	150.49	6.056	343.58	-1000000	-1000000	-1000000	-1000000	
28.72	4.057	152.70	6.056	343.23	-1000000	-1000000	-1000000	-1000000	
28.74	4.057	154.43	6.056	343.51	-1000000	-1000000	-1000000	-1000000	
28.76	4.057	155.69	6.056	343.84	-1000000	-1000000	-1000000	-1000000	
28.78	4.057	157.11	6.055	343.55	-1000000	-1000000	-1000000	-1000000	
28.80	4.057	158.70	6.056	343.31	-1000000	-1000000	-1000000	-1000000	
28.82	4.057	160.24	6.056	343.35	-1000000	-1000000	-1000000	-1000000	
28.84	4.057	162.04	6.056	343.32	-1000000	-1000000	-1000000	-1000000	
28.86	4.057	163.81	6.056	342.68	-1000000	-1000000	-1000000	-1000000	
28.88	4.057	165.70	6.056	342.16	-1000000	-1000000	-1000000	-1000000	
28.90	4.057	167.68	6.056	342.28	-1000000	-1000000	-1000000	-1000000	
28.92	4.057	169.58	6.056	342.76	-1000000	-1000000	-1000000	-1000000	
28.94	4.057	171.25	6.056	343.27	-1000000	-1000000	-1000000	-1000000	
28.96	4.057	172.89	6.056	343.13	-1000000	-1000000	-1000000	-1000000	
28.98	4.057	174.65	6.056	342.99	-1000000	-1000000	-1000000	-1000000	
29.00	4.057	176.20	6.056	342.79	-1000000	-1000000	-1000000	-1000000	
29.02	4.057	177.68	6.056	342.57	-1000000	-1000000	-1000000	-1000000	
29.04	4.057	179.53	6.056	342.46	-1000000	-1000000	-1000000	-1000000	
29.06	4.057	181.21	6.056	342.54	-1000000	-1000000	-1000000	-1000000	
29.08	4.057	182.43	6.056	342.12	-1000000	-1000000	-1000000	-1000000	
29.10	4.057	183.81	6.056	341.59	-1000000	-1000000	-1000000	-1000000	
29.12	4.057	185.55	6.056	341.48	-1000000	-1000000	-1000000	-1000000	
29.14	4.057	186.96	6.056	341.97	-1000000	-1000000	-1000000	-1000000	
29.16	4.057	188.56	6.056	341.97	-1000000	-1000000	-1000000	-1000000	
29.18	4.057	190.50	6.056	341.41	-1000000	-1000000	-1000000	-1000000	