Zeit  1 - Standardmessrate [s]	Maytec [mm]	Kraft [N]	Standardwegaufnehmer [mm]	Pyrometer [°C]	Drehwinkel [V]	MX840_0_CH 6 [V]	MX840_0_CH 7 [V]	MX840_0_CH 8 [V]
0	0.03479	130.27	0.1210	300.13	-1000000	-1000000	-1000000	-1000000	
0.02000	0.03483	130.13	0.1210	300.11	-1000000	-1000000	-1000000	-1000000	
0.04000	0.03486	130.00	0.1211	300.11	-1000000	-1000000	-1000000	-1000000	
0.06000	0.03482	130.29	0.1211	300.14	-1000000	-1000000	-1000000	-1000000	
0.08000	0.03483	130.44	0.1211	300.15	-1000000	-1000000	-1000000	-1000000	
0.1000	0.03482	130.39	0.1213	300.13	-1000000	-1000000	-1000000	-1000000	
0.1200	0.03480	130.30	0.1215	300.11	-1000000	-1000000	-1000000	-1000000	
0.1400	0.03481	130.06	0.1217	300.12	-1000000	-1000000	-1000000	-1000000	
0.1600	0.03485	130.03	0.1218	300.14	-1000000	-1000000	-1000000	-1000000	
0.1800	0.03488	130.02	0.1217	300.14	-1000000	-1000000	-1000000	-1000000	
0.2000	0.03490	130.18	0.1217	300.12	-1000000	-1000000	-1000000	-1000000	
0.2200	0.03489	130.31	0.1217	300.11	-1000000	-1000000	-1000000	-1000000	
0.2400	0.03489	130.11	0.1217	300.12	-1000000	-1000000	-1000000	-1000000	
0.2600	0.03487	130.00	0.1217	300.14	-1000000	-1000000	-1000000	-1000000	
0.2800	0.03483	130.39	0.1217	300.14	-1000000	-1000000	-1000000	-1000000	
0.3000	0.03485	130.46	0.1217	300.11	-1000000	-1000000	-1000000	-1000000	
0.3200	0.03486	130.25	0.1217	300.10	-1000000	-1000000	-1000000	-1000000	
0.3400	0.03491	130.21	0.1218	300.11	-1000000	-1000000	-1000000	-1000000	
0.3600	0.03501	130.21	0.1217	300.14	-1000000	-1000000	-1000000	-1000000	
0.3800	0.03505	130.33	0.1217	300.13	-1000000	-1000000	-1000000	-1000000	
0.4000	0.03502	130.49	0.1217	300.11	-1000000	-1000000	-1000000	-1000000	
0.4200	0.03495	130.43	0.1217	300.11	-1000000	-1000000	-1000000	-1000000	
0.4400	0.03492	130.31	0.1217	300.13	-1000000	-1000000	-1000000	-1000000	
0.4600	0.03496	130.27	0.1217	300.14	-1000000	-1000000	-1000000	-1000000	
0.4800	0.03501	130.26	0.1217	300.13	-1000000	-1000000	-1000000	-1000000	
0.5000	0.03501	130.24	0.1216	300.11	-1000000	-1000000	-1000000	-1000000	
0.5200	0.03502	130.17	0.1216	300.12	-1000000	-1000000	-1000000	-1000000	
0.5400	0.03501	130.20	0.1216	300.14	-1000000	-1000000	-1000000	-1000000	
0.5600	0.03499	130.15	0.1216	300.14	-1000000	-1000000	-1000000	-1000000	
0.5800	0.03497	130.01	0.1216	300.12	-1000000	-1000000	-1000000	-1000000	
0.6000	0.03497	130.07	0.1217	300.11	-1000000	-1000000	-1000000	-1000000	
0.6200	0.03498	130.24	0.1217	300.11	-1000000	-1000000	-1000000	-1000000	
0.6400	0.03494	130.31	0.1218	300.13	-1000000	-1000000	-1000000	-1000000	
0.6600	0.03493	130.09	0.1218	300.13	-1000000	-1000000	-1000000	-1000000	
0.6800	0.03496	130.05	0.1221	300.12	-1000000	-1000000	-1000000	-1000000	
0.7000	0.03503	130.04	0.1223	300.10	-1000000	-1000000	-1000000	-1000000	
0.7200	0.03504	129.99	0.1223	300.11	-1000000	-1000000	-1000000	-1000000	
0.7400	0.03501	130.06	0.1223	300.13	-1000000	-1000000	-1000000	-1000000	
0.7600	0.03501	130.13	0.1224	300.13	-1000000	-1000000	-1000000	-1000000	
0.7800	0.03502	130.22	0.1224	300.11	-1000000	-1000000	-1000000	-1000000	
0.8000	0.03502	130.26	0.1224	300.11	-1000000	-1000000	-1000000	-1000000	
0.8200	0.03504	130.23	0.1224	300.13	-1000000	-1000000	-1000000	-1000000	
0.8400	0.03505	130.35	0.1224	300.14	-1000000	-1000000	-1000000	-1000000	
0.8600	0.03508	130.34	0.1224	300.13	-1000000	-1000000	-1000000	-1000000	
0.8800	0.03512	130.31	0.1224	300.11	-1000000	-1000000	-1000000	-1000000	
0.9000	0.03512	130.25	0.1223	300.11	-1000000	-1000000	-1000000	-1000000	
0.9200	0.03509	130.22	0.1223	300.13	-1000000	-1000000	-1000000	-1000000	
0.9400	0.03507	130.31	0.1222	300.14	-1000000	-1000000	-1000000	-1000000	
0.9600	0.03507	130.28	0.1222	300.12	-1000000	-1000000	-1000000	-1000000	
0.9800	0.03509	130.07	0.1223	300.10	-1000000	-1000000	-1000000	-1000000	
1.000	0.03511	129.86	0.1224	300.12	-1000000	-1000000	-1000000	-1000000	
1.020	0.03517	129.89	0.1224	300.14	-1000000	-1000000	-1000000	-1000000	
1.040	0.03521	130.16	0.1223	300.14	-1000000	-1000000	-1000000	-1000000	
1.060	0.03527	130.25	0.1223	300.12	-1000000	-1000000	-1000000	-1000000	
1.080	0.03527	130.29	0.1223	300.11	-1000000	-1000000	-1000000	-1000000	
1.100	0.03521	130.27	0.1223	300.12	-1000000	-1000000	-1000000	-1000000	
1.120	0.03521	130.17	0.1223	300.14	-1000000	-1000000	-1000000	-1000000	
1.140	0.03517	130.18	0.1223	300.13	-1000000	-1000000	-1000000	-1000000	
1.160	0.03506	130.15	0.1223	300.11	-1000000	-1000000	-1000000	-1000000	
1.180	0.03505	130.08	0.1223	300.10	-1000000	-1000000	-1000000	-1000000	
1.200	0.03515	130.08	0.1225	300.12	-1000000	-1000000	-1000000	-1000000	
1.220	0.03518	130.29	0.1229	300.14	-1000000	-1000000	-1000000	-1000000	
1.240	0.03522	130.46	0.1230	300.13	-1000000	-1000000	-1000000	-1000000	
1.260	0.03524	130.42	0.1230	300.11	-1000000	-1000000	-1000000	-1000000	
1.280	0.03517	130.19	0.1231	300.11	-1000000	-1000000	-1000000	-1000000	
1.300	0.03517	130.14	0.1231	300.13	-1000000	-1000000	-1000000	-1000000	
1.320	0.03519	130.04	0.1231	300.14	-1000000	-1000000	-1000000	-1000000	
1.340	0.03517	130.06	0.1230	300.12	-1000000	-1000000	-1000000	-1000000	
1.360	0.03517	130.05	0.1230	300.11	-1000000	-1000000	-1000000	-1000000	
1.380	0.03520	130.07	0.1230	300.12	-1000000	-1000000	-1000000	-1000000	
1.400	0.03524	130.05	0.1231	300.14	-1000000	-1000000	-1000000	-1000000	
1.420	0.03528	130.12	0.1231	300.14	-1000000	-1000000	-1000000	-1000000	
1.440	0.03528	130.20	0.1231	300.12	-1000000	-1000000	-1000000	-1000000	
1.460	0.03524	130.29	0.1231	300.11	-1000000	-1000000	-1000000	-1000000	
1.480	0.03520	130.22	0.1231	300.12	-1000000	-1000000	-1000000	-1000000	
1.500	0.03517	130.02	0.1231	300.14	-1000000	-1000000	-1000000	-1000000	
1.520	0.03520	129.95	0.1231	300.14	-1000000	-1000000	-1000000	-1000000	
1.540	0.03524	129.69	0.1231	300.11	-1000000	-1000000	-1000000	-1000000	
1.560	0.03524	129.30	0.1231	300.11	-1000000	-1000000	-1000000	-1000000	
1.580	0.03523	129.62	0.1231	300.13	-1000000	-1000000	-1000000	-1000000	
1.600	0.03527	130.09	0.1231	300.14	-1000000	-1000000	-1000000	-1000000	
1.620	0.03530	130.11	0.1230	300.13	-1000000	-1000000	-1000000	-1000000	
1.640	0.03529	129.95	0.1230	300.11	-1000000	-1000000	-1000000	-1000000	
1.660	0.03526	129.77	0.1230	300.11	-1000000	-1000000	-1000000	-1000000	
1.680	0.03522	129.86	0.1230	300.13	-1000000	-1000000	-1000000	-1000000	
1.700	0.03523	129.99	0.1230	300.14	-1000000	-1000000	-1000000	-1000000	
1.720	0.03527	130.11	0.1231	300.12	-1000000	-1000000	-1000000	-1000000	
1.740	0.03532	130.19	0.1231	300.10	-1000000	-1000000	-1000000	-1000000	
1.760	0.03537	130.21	0.1233	300.11	-1000000	-1000000	-1000000	-1000000	
1.780	0.03535	130.26	0.1236	300.13	-1000000	-1000000	-1000000	-1000000	
1.800	0.03533	130.29	0.1238	300.14	-1000000	-1000000	-1000000	-1000000	
1.820	0.03531	130.22	0.1238	300.12	-1000000	-1000000	-1000000	-1000000	
1.840	0.03531	130.11	0.1237	300.11	-1000000	-1000000	-1000000	-1000000	
1.860	0.03532	130.16	0.1237	300.12	-1000000	-1000000	-1000000	-1000000	
1.880	0.03533	130.05	0.1236	300.14	-1000000	-1000000	-1000000	-1000000	
1.900	0.03535	129.95	0.1237	300.14	-1000000	-1000000	-1000000	-1000000	
1.920	0.03539	129.98	0.1236	300.12	-1000000	-1000000	-1000000	-1000000	
1.940	0.03544	130.12	0.1236	300.11	-1000000	-1000000	-1000000	-1000000	
1.960	0.03541	130.15	0.1236	300.12	-1000000	-1000000	-1000000	-1000000	
1.980	0.03538	130.10	0.1237	300.14	-1000000	-1000000	-1000000	-1000000	
2.000	0.03536	130.22	0.1238	300.13	-1000000	-1000000	-1000000	-1000000	
2.020	0.03534	130.24	0.1237	300.11	-1000000	-1000000	-1000000	-1000000	
2.040	0.03537	130.10	0.1237	300.11	-1000000	-1000000	-1000000	-1000000	
2.060	0.03540	130.12	0.1237	300.13	-1000000	-1000000	-1000000	-1000000	
2.080	0.03542	130.10	0.1237	300.14	-1000000	-1000000	-1000000	-1000000	
2.100	0.03548	130.07	0.1237	300.12	-1000000	-1000000	-1000000	-1000000	
2.120	0.03550	130.10	0.1237	300.10	-1000000	-1000000	-1000000	-1000000	
2.140	0.03549	130.11	0.1236	300.11	-1000000	-1000000	-1000000	-1000000	
2.160	0.03546	129.76	0.1236	300.13	-1000000	-1000000	-1000000	-1000000	
2.180	0.03541	129.02	0.1237	300.14	-1000000	-1000000	-1000000	-1000000	
2.200	0.03540	128.59	0.1238	300.11	-1000000	-1000000	-1000000	-1000000	
2.220	0.03541	128.48	0.1237	300.10	-1000000	-1000000	-1000000	-1000000	
2.240	0.03547	128.48	0.1237	300.12	-1000000	-1000000	-1000000	-1000000	
2.260	0.03555	128.41	0.1237	300.14	-1000000	-1000000	-1000000	-1000000	
2.280	0.03559	128.41	0.1240	300.14	-1000000	-1000000	-1000000	-1000000	
2.300	0.03564	128.30	0.1244	300.11	-1000000	-1000000	-1000000	-1000000	
2.320	0.03565	128.14	0.1245	300.11	-1000000	-1000000	-1000000	-1000000	
2.340	0.03563	127.66	0.1245	300.13	-1000000	-1000000	-1000000	-1000000	
2.360	0.03563	126.73	0.1245	300.14	-1000000	-1000000	-1000000	-1000000	
2.380	0.03564	125.59	0.1244	300.13	-1000000	-1000000	-1000000	-1000000	
2.400	0.03569	124.18	0.1243	300.11	-1000000	-1000000	-1000000	-1000000	
2.420	0.03575	122.16	0.1243	300.11	-1000000	-1000000	-1000000	-1000000	
2.440	0.03583	119.18	0.1243	300.13	-1000000	-1000000	-1000000	-1000000	
2.460	0.03595	114.80	0.1245	300.13	-1000000	-1000000	-1000000	-1000000	
2.480	0.03619	108.19	0.1248	300.12	-1000000	-1000000	-1000000	-1000000	
2.500	0.03653	96.05	0.1249	300.11	-1000000	-1000000	-1000000	-1000000	
2.520	0.03700	74.85	0.1252	300.11	-1000000	-1000000	-1000000	-1000000	
2.540	0.03760	43.97	0.1257	300.14	-1000000	-1000000	-1000000	-1000000	
2.560	0.03829	6.913	0.1264	300.14	-1000000	-1000000	-1000000	-1000000	
2.580	0.03913	-30.47	0.1275	300.12	-1000000	-1000000	-1000000	-1000000	
2.600	0.04002	-63.01	0.1292	300.11	-1000000	-1000000	-1000000	-1000000	
2.620	0.04094	-85.20	0.1316	300.12	-1000000	-1000000	-1000000	-1000000	
2.640	0.04185	-95.55	0.1344	300.14	-1000000	-1000000	-1000000	-1000000	
2.660	0.04270	-96.99	0.1375	300.14	-1000000	-1000000	-1000000	-1000000	
2.680	0.04352	-94.44	0.1408	300.12	-1000000	-1000000	-1000000	-1000000	
2.700	0.04429	-91.09	0.1439	300.11	-1000000	-1000000	-1000000	-1000000	
2.720	0.04507	-89.05	0.1469	300.12	-1000000	-1000000	-1000000	-1000000	
2.740	0.04590	-88.32	0.1499	300.14	-1000000	-1000000	-1000000	-1000000	
2.760	0.04681	-88.52	0.1531	300.14	-1000000	-1000000	-1000000	-1000000	
2.780	0.04774	-89.25	0.1562	300.11	-1000000	-1000000	-1000000	-1000000	
2.800	0.04860	-89.57	0.1592	300.11	-1000000	-1000000	-1000000	-1000000	
2.820	0.04942	-89.70	0.1623	300.13	-1000000	-1000000	-1000000	-1000000	
2.840	0.05024	-90.21	0.1654	300.14	-1000000	-1000000	-1000000	-1000000	
2.860	0.05104	-90.97	0.1685	300.13	-1000000	-1000000	-1000000	-1000000	
2.880	0.05185	-92.17	0.1715	300.11	-1000000	-1000000	-1000000	-1000000	
2.900	0.05271	-93.64	0.1744	300.11	-1000000	-1000000	-1000000	-1000000	
2.920	0.05355	-95.27	0.1775	300.13	-1000000	-1000000	-1000000	-1000000	
2.940	0.05442	-96.78	0.1805	300.14	-1000000	-1000000	-1000000	-1000000	
2.960	0.05530	-97.74	0.1836	300.13	-1000000	-1000000	-1000000	-1000000	
2.980	0.05619	-97.77	0.1868	300.11	-1000000	-1000000	-1000000	-1000000	
3.000	0.05708	-97.02	0.1901	300.12	-1000000	-1000000	-1000000	-1000000	
3.020	0.05790	-95.81	0.1932	300.14	-1000000	-1000000	-1000000	-1000000	
3.040	0.05872	-95.03	0.1963	300.15	-1000000	-1000000	-1000000	-1000000	
3.060	0.05959	-94.83	0.1995	300.13	-1000000	-1000000	-1000000	-1000000	
3.080	0.06050	-95.11	0.2026	300.11	-1000000	-1000000	-1000000	-1000000	
3.100	0.06138	-95.92	0.2058	300.11	-1000000	-1000000	-1000000	-1000000	
3.120	0.06225	-96.39	0.2089	300.13	-1000000	-1000000	-1000000	-1000000	
3.140	0.06310	-96.51	0.2120	300.13	-1000000	-1000000	-1000000	-1000000	
3.160	0.06398	-96.55	0.2151	300.12	-1000000	-1000000	-1000000	-1000000	
3.180	0.06484	-96.56	0.2182	300.10	-1000000	-1000000	-1000000	-1000000	
3.200	0.06570	-96.14	0.2214	300.12	-1000000	-1000000	-1000000	-1000000	
3.220	0.06656	-95.33	0.2246	300.14	-1000000	-1000000	-1000000	-1000000	
3.240	0.06738	-94.99	0.2279	300.13	-1000000	-1000000	-1000000	-1000000	
3.260	0.06822	-94.93	0.2311	300.11	-1000000	-1000000	-1000000	-1000000	
3.280	0.06913	-95.34	0.2341	300.11	-1000000	-1000000	-1000000	-1000000	
3.300	0.07003	-96.24	0.2371	300.13	-1000000	-1000000	-1000000	-1000000	
3.320	0.07090	-97.13	0.2402	300.14	-1000000	-1000000	-1000000	-1000000	
3.340	0.07177	-98.35	0.2433	300.13	-1000000	-1000000	-1000000	-1000000	
3.360	0.07260	-99.45	0.2464	300.11	-1000000	-1000000	-1000000	-1000000	
3.380	0.07343	-99.79	0.2495	300.11	-1000000	-1000000	-1000000	-1000000	
3.400	0.07429	-99.77	0.2527	300.13	-1000000	-1000000	-1000000	-1000000	
3.420	0.07516	-99.72	0.2559	300.14	-1000000	-1000000	-1000000	-1000000	
3.440	0.07604	-99.75	0.2592	300.13	-1000000	-1000000	-1000000	-1000000	
3.460	0.07693	-99.45	0.2624	300.11	-1000000	-1000000	-1000000	-1000000	
3.480	0.07781	-98.72	0.2656	300.11	-1000000	-1000000	-1000000	-1000000	
3.500	0.07866	-98.36	0.2687	300.13	-1000000	-1000000	-1000000	-1000000	
3.520	0.07955	-98.21	0.2718	300.14	-1000000	-1000000	-1000000	-1000000	
3.540	0.08044	-98.15	0.2749	300.12	-1000000	-1000000	-1000000	-1000000	
3.560	0.08128	-98.22	0.2782	300.11	-1000000	-1000000	-1000000	-1000000	
3.580	0.08213	-98.37	0.2814	300.12	-1000000	-1000000	-1000000	-1000000	
3.600	0.08302	-98.28	0.2845	300.14	-1000000	-1000000	-1000000	-1000000	
3.620	0.08393	-97.69	0.2877	300.14	-1000000	-1000000	-1000000	-1000000	
3.640	0.08484	-97.03	0.2910	300.11	-1000000	-1000000	-1000000	-1000000	
3.660	0.08573	-96.72	0.2942	300.11	-1000000	-1000000	-1000000	-1000000	
3.680	0.08655	-96.65	0.2974	300.13	-1000000	-1000000	-1000000	-1000000	
3.700	0.08736	-96.65	0.3005	300.14	-1000000	-1000000	-1000000	-1000000	
3.720	0.08824	-97.12	0.3035	300.13	-1000000	-1000000	-1000000	-1000000	
3.740	0.08912	-98.07	0.3066	300.11	-1000000	-1000000	-1000000	-1000000	
3.760	0.08994	-99.09	0.3097	300.11	-1000000	-1000000	-1000000	-1000000	
3.780	0.09080	-99.69	0.3129	300.13	-1000000	-1000000	-1000000	-1000000	
3.800	0.09171	-99.93	0.3161	300.14	-1000000	-1000000	-1000000	-1000000	
3.820	0.09260	-99.99	0.3194	300.13	-1000000	-1000000	-1000000	-1000000	
3.840	0.09345	-99.84	0.3226	300.13	-1000000	-1000000	-1000000	-1000000	
3.860	0.09430	-99.26	0.3257	300.13	-1000000	-1000000	-1000000	-1000000	
3.880	0.09514	-98.58	0.3290	300.16	-1000000	-1000000	-1000000	-1000000	
3.900	0.09601	-98.24	0.3322	300.17	-1000000	-1000000	-1000000	-1000000	
3.920	0.09690	-98.24	0.3353	300.16	-1000000	-1000000	-1000000	-1000000	
3.940	0.09779	-98.38	0.3384	300.28	-1000000	-1000000	-1000000	-1000000	
3.960	0.09867	-98.32	0.3415	300.96	-1000000	-1000000	-1000000	-1000000	
3.980	0.09955	-98.32	0.3446	302.08	-1000000	-1000000	-1000000	-1000000	
4.000	0.1004	-98.34	0.3477	303.19	-1000000	-1000000	-1000000	-1000000	
4.020	0.1012	-98.18	0.3509	304.44	-1000000	-1000000	-1000000	-1000000	
4.040	0.1021	-97.66	0.3541	305.76	-1000000	-1000000	-1000000	-1000000	
4.060	0.1029	-96.97	0.3573	307.50	-1000000	-1000000	-1000000	-1000000	
4.080	0.1038	-96.55	0.3605	308.80	-1000000	-1000000	-1000000	-1000000	
4.100	0.1047	-96.25	0.3637	309.87	-1000000	-1000000	-1000000	-1000000	
4.120	0.1055	-95.56	0.3669	311.39	-1000000	-1000000	-1000000	-1000000	
4.140	0.1063	-94.99	0.3702	313.64	-1000000	-1000000	-1000000	-1000000	
4.160	0.1070	-94.18	0.3733	315.34	-1000000	-1000000	-1000000	-1000000	
4.180	0.1077	-89.86	0.3764	316.31	-1000000	-1000000	-1000000	-1000000	
4.200	0.1082	-78.16	0.3794	317.07	-1000000	-1000000	-1000000	-1000000	
4.220	0.1086	-56.11	0.3825	317.74	-1000000	-1000000	-1000000	-1000000	
4.240	0.1089	-24.44	0.3856	318.22	-1000000	-1000000	-1000000	-1000000	
4.260	0.1091	13.15	0.3883	318.45	-1000000	-1000000	-1000000	-1000000	
4.280	0.1093	51.05	0.3906	317.92	-1000000	-1000000	-1000000	-1000000	
4.300	0.1094	83.12	0.3922	318.56	-1000000	-1000000	-1000000	-1000000	
4.320	0.1094	105.22	0.3932	319.44	-1000000	-1000000	-1000000	-1000000	
4.340	0.1094	117.78	0.3936	319.50	-1000000	-1000000	-1000000	-1000000	
4.360	0.1094	123.27	0.3936	319.55	-1000000	-1000000	-1000000	-1000000	
4.380	0.1095	124.03	0.3936	319.64	-1000000	-1000000	-1000000	-1000000	
4.400	0.1095	122.26	0.3937	318.82	-1000000	-1000000	-1000000	-1000000	
4.420	0.1095	119.42	0.3939	318.92	-1000000	-1000000	-1000000	-1000000	
4.440	0.1095	116.17	0.3942	319.46	-1000000	-1000000	-1000000	-1000000	
4.460	0.1097	112.68	0.3943	319.78	-1000000	-1000000	-1000000	-1000000	
4.480	0.1098	108.65	0.3945	319.62	-1000000	-1000000	-1000000	-1000000	
4.500	0.1100	104.97	0.3948	319.65	-1000000	-1000000	-1000000	-1000000	
4.520	0.1101	102.40	0.3951	319.89	-1000000	-1000000	-1000000	-1000000	
4.540	0.1102	100.76	0.3955	320.14	-1000000	-1000000	-1000000	-1000000	
4.560	0.1103	100.46	0.3959	319.94	-1000000	-1000000	-1000000	-1000000	
4.580	0.1104	101.57	0.3963	319.72	-1000000	-1000000	-1000000	-1000000	
4.600	0.1105	103.86	0.3968	320.29	-1000000	-1000000	-1000000	-1000000	
4.620	0.1105	106.12	0.3971	321.14	-1000000	-1000000	-1000000	-1000000	
4.640	0.1106	108.00	0.3975	320.97	-1000000	-1000000	-1000000	-1000000	
4.660	0.1107	109.22	0.3979	320.68	-1000000	-1000000	-1000000	-1000000	
4.680	0.1108	109.43	0.3983	320.45	-1000000	-1000000	-1000000	-1000000	
4.700	0.1109	108.79	0.3985	321.09	-1000000	-1000000	-1000000	-1000000	
4.720	0.1110	108.27	0.3989	321.82	-1000000	-1000000	-1000000	-1000000	
4.740	0.1110	107.67	0.3992	322.16	-1000000	-1000000	-1000000	-1000000	
4.760	0.1111	106.65	0.3996	321.70	-1000000	-1000000	-1000000	-1000000	
4.780	0.1112	105.14	0.3998	321.75	-1000000	-1000000	-1000000	-1000000	
4.800	0.1113	103.90	0.4002	322.02	-1000000	-1000000	-1000000	-1000000	
4.820	0.1115	103.30	0.4005	322.41	-1000000	-1000000	-1000000	-1000000	
4.840	0.1116	103.25	0.4009	322.51	-1000000	-1000000	-1000000	-1000000	
4.860	0.1117	103.55	0.4014	322.55	-1000000	-1000000	-1000000	-1000000	
4.880	0.1118	104.00	0.4017	322.85	-1000000	-1000000	-1000000	-1000000	
4.900	0.1119	103.95	0.4020	322.70	-1000000	-1000000	-1000000	-1000000	
4.920	0.1119	103.27	0.4025	323.18	-1000000	-1000000	-1000000	-1000000	
4.940	0.1121	102.22	0.4029	323.65	-1000000	-1000000	-1000000	-1000000	
4.960	0.1121	101.54	0.4033	323.52	-1000000	-1000000	-1000000	-1000000	
4.980	0.1122	101.85	0.4038	323.69	-1000000	-1000000	-1000000	-1000000	
5.000	0.1124	102.90	0.4042	324.15	-1000000	-1000000	-1000000	-1000000	
5.020	0.1125	103.77	0.4045	324.50	-1000000	-1000000	-1000000	-1000000	
5.040	0.1126	103.84	0.4049	325.17	-1000000	-1000000	-1000000	-1000000	
5.060	0.1127	103.18	0.4054	325.56	-1000000	-1000000	-1000000	-1000000	
5.080	0.1128	101.99	0.4057	325.59	-1000000	-1000000	-1000000	-1000000	
5.100	0.1129	100.63	0.4061	325.37	-1000000	-1000000	-1000000	-1000000	
5.120	0.1130	99.95	0.4065	324.99	-1000000	-1000000	-1000000	-1000000	
5.140	0.1131	101.04	0.4069	325.19	-1000000	-1000000	-1000000	-1000000	
5.160	0.1132	103.72	0.4074	325.85	-1000000	-1000000	-1000000	-1000000	
5.180	0.1133	106.61	0.4079	326.30	-1000000	-1000000	-1000000	-1000000	
5.200	0.1134	108.66	0.4083	326.19	-1000000	-1000000	-1000000	-1000000	
5.220	0.1135	109.70	0.4086	326.10	-1000000	-1000000	-1000000	-1000000	
5.240	0.1135	109.76	0.4089	326.71	-1000000	-1000000	-1000000	-1000000	
5.260	0.1136	108.54	0.4092	327.54	-1000000	-1000000	-1000000	-1000000	
5.280	0.1137	106.53	0.4095	327.84	-1000000	-1000000	-1000000	-1000000	
5.300	0.1138	105.24	0.4100	327.77	-1000000	-1000000	-1000000	-1000000	
5.320	0.1138	105.05	0.4104	327.65	-1000000	-1000000	-1000000	-1000000	
5.340	0.1139	105.88	0.4107	328.22	-1000000	-1000000	-1000000	-1000000	
5.360	0.1140	107.21	0.4110	328.59	-1000000	-1000000	-1000000	-1000000	
5.380	0.1141	108.73	0.4115	328.56	-1000000	-1000000	-1000000	-1000000	
5.400	0.1142	109.83	0.4119	328.68	-1000000	-1000000	-1000000	-1000000	
5.420	0.1142	110.87	0.4122	328.62	-1000000	-1000000	-1000000	-1000000	
5.440	0.1143	111.68	0.4125	328.72	-1000000	-1000000	-1000000	-1000000	
5.460	0.1144	112.42	0.4129	329.01	-1000000	-1000000	-1000000	-1000000	
5.480	0.1145	112.63	0.4131	329.42	-1000000	-1000000	-1000000	-1000000	
5.500	0.1146	112.04	0.4134	329.67	-1000000	-1000000	-1000000	-1000000	
5.520	0.1147	110.92	0.4137	329.96	-1000000	-1000000	-1000000	-1000000	
5.540	0.1148	109.25	0.4139	330.26	-1000000	-1000000	-1000000	-1000000	
5.560	0.1148	107.22	0.4142	330.55	-1000000	-1000000	-1000000	-1000000	
5.580	0.1149	105.81	0.4145	330.61	-1000000	-1000000	-1000000	-1000000	
5.600	0.1149	105.98	0.4149	330.46	-1000000	-1000000	-1000000	-1000000	
5.620	0.1150	107.66	0.4153	330.14	-1000000	-1000000	-1000000	-1000000	
5.640	0.1151	110.52	0.4157	330.07	-1000000	-1000000	-1000000	-1000000	
5.660	0.1152	113.67	0.4160	330.40	-1000000	-1000000	-1000000	-1000000	
5.680	0.1153	116.09	0.4164	330.74	-1000000	-1000000	-1000000	-1000000	
5.700	0.1154	117.17	0.4166	331.00	-1000000	-1000000	-1000000	-1000000	
5.720	0.1154	115.93	0.4167	331.40	-1000000	-1000000	-1000000	-1000000	
5.740	0.1155	113.12	0.4170	331.67	-1000000	-1000000	-1000000	-1000000	
5.760	0.1155	109.47	0.4171	331.69	-1000000	-1000000	-1000000	-1000000	
5.780	0.1156	105.46	0.4173	331.72	-1000000	-1000000	-1000000	-1000000	
5.800	0.1157	102.20	0.4177	331.99	-1000000	-1000000	-1000000	-1000000	
5.820	0.1158	100.70	0.4182	332.32	-1000000	-1000000	-1000000	-1000000	
5.840	0.1160	100.98	0.4186	332.41	-1000000	-1000000	-1000000	-1000000	
5.860	0.1161	102.07	0.4191	332.85	-1000000	-1000000	-1000000	-1000000	
5.880	0.1162	103.80	0.4195	333.19	-1000000	-1000000	-1000000	-1000000	
5.900	0.1162	105.31	0.4199	333.04	-1000000	-1000000	-1000000	-1000000	
5.920	0.1162	106.56	0.4203	333.66	-1000000	-1000000	-1000000	-1000000	
5.940	0.1163	107.75	0.4206	333.96	-1000000	-1000000	-1000000	-1000000	
5.960	0.1164	108.29	0.4210	333.80	-1000000	-1000000	-1000000	-1000000	
5.980	0.1165	108.33	0.4215	333.88	-1000000	-1000000	-1000000	-1000000	
6.000	0.1166	107.70	0.4219	333.96	-1000000	-1000000	-1000000	-1000000	
6.020	0.1168	106.65	0.4221	334.26	-1000000	-1000000	-1000000	-1000000	
6.040	0.1169	105.52	0.4224	334.85	-1000000	-1000000	-1000000	-1000000	
6.060	0.1170	105.15	0.4227	335.30	-1000000	-1000000	-1000000	-1000000	
6.080	0.1170	105.45	0.4230	335.42	-1000000	-1000000	-1000000	-1000000	
6.100	0.1171	106.47	0.4235	335.63	-1000000	-1000000	-1000000	-1000000	
6.120	0.1171	108.00	0.4239	335.38	-1000000	-1000000	-1000000	-1000000	
6.140	0.1172	109.24	0.4244	335.11	-1000000	-1000000	-1000000	-1000000	
6.160	0.1173	109.92	0.4248	335.36	-1000000	-1000000	-1000000	-1000000	
6.180	0.1174	110.48	0.4251	335.94	-1000000	-1000000	-1000000	-1000000	
6.200	0.1175	111.17	0.4253	336.38	-1000000	-1000000	-1000000	-1000000	
6.220	0.1176	111.63	0.4256	336.43	-1000000	-1000000	-1000000	-1000000	
6.240	0.1177	111.72	0.4259	336.56	-1000000	-1000000	-1000000	-1000000	
6.260	0.1177	111.21	0.4263	337.06	-1000000	-1000000	-1000000	-1000000	
6.280	0.1178	110.37	0.4265	336.98	-1000000	-1000000	-1000000	-1000000	
6.300	0.1179	109.15	0.4268	336.95	-1000000	-1000000	-1000000	-1000000	
6.320	0.1180	108.07	0.4270	337.20	-1000000	-1000000	-1000000	-1000000	
6.340	0.1181	107.18	0.4273	337.81	-1000000	-1000000	-1000000	-1000000	
6.360	0.1182	106.73	0.4277	338.14	-1000000	-1000000	-1000000	-1000000	
6.380	0.1183	106.60	0.4282	338.21	-1000000	-1000000	-1000000	-1000000	
6.400	0.1184	106.68	0.4286	338.55	-1000000	-1000000	-1000000	-1000000	
6.420	0.1184	106.68	0.4290	339.04	-1000000	-1000000	-1000000	-1000000	
6.440	0.1185	106.19	0.4292	339.66	-1000000	-1000000	-1000000	-1000000	
6.460	0.1185	105.39	0.4296	339.80	-1000000	-1000000	-1000000	-1000000	
6.480	0.1186	105.40	0.4299	339.53	-1000000	-1000000	-1000000	-1000000	
6.500	0.1187	106.63	0.4303	339.50	-1000000	-1000000	-1000000	-1000000	
6.520	0.1188	109.09	0.4307	339.90	-1000000	-1000000	-1000000	-1000000	
6.540	0.1188	112.90	0.4311	339.88	-1000000	-1000000	-1000000	-1000000	
6.560	0.1189	117.69	0.4315	339.77	-1000000	-1000000	-1000000	-1000000	
6.580	0.1189	121.57	0.4318	339.80	-1000000	-1000000	-1000000	-1000000	
6.600	0.1189	123.83	0.4320	340.04	-1000000	-1000000	-1000000	-1000000	
6.620	0.1190	123.65	0.4320	340.48	-1000000	-1000000	-1000000	-1000000	
6.640	0.1191	121.34	0.4322	340.82	-1000000	-1000000	-1000000	-1000000	
6.660	0.1192	117.70	0.4324	340.89	-1000000	-1000000	-1000000	-1000000	
6.680	0.1193	112.96	0.4326	341.35	-1000000	-1000000	-1000000	-1000000	
6.700	0.1194	108.51	0.4327	341.70	-1000000	-1000000	-1000000	-1000000	
6.720	0.1194	105.13	0.4330	341.95	-1000000	-1000000	-1000000	-1000000	
6.740	0.1195	103.61	0.4334	341.93	-1000000	-1000000	-1000000	-1000000	
6.760	0.1196	104.12	0.4338	341.89	-1000000	-1000000	-1000000	-1000000	
6.780	0.1196	105.55	0.4341	342.26	-1000000	-1000000	-1000000	-1000000	
6.800	0.1197	107.19	0.4345	343.01	-1000000	-1000000	-1000000	-1000000	
6.820	0.1197	108.24	0.4349	343.32	-1000000	-1000000	-1000000	-1000000	
6.840	0.1198	109.31	0.4353	343.51	-1000000	-1000000	-1000000	-1000000	
6.860	0.1200	110.87	0.4356	343.61	-1000000	-1000000	-1000000	-1000000	
6.880	0.1200	112.41	0.4359	343.85	-1000000	-1000000	-1000000	-1000000	
6.900	0.1201	113.53	0.4363	343.97	-1000000	-1000000	-1000000	-1000000	
6.920	0.1201	114.60	0.4366	344.01	-1000000	-1000000	-1000000	-1000000	
6.940	0.1202	115.73	0.4368	344.24	-1000000	-1000000	-1000000	-1000000	
6.960	0.1202	116.44	0.4371	344.10	-1000000	-1000000	-1000000	-1000000	
6.980	0.1202	116.15	0.4372	343.82	-1000000	-1000000	-1000000	-1000000	
7.000	0.1202	115.27	0.4374	343.77	-1000000	-1000000	-1000000	-1000000	
7.020	0.1203	114.86	0.4377	344.28	-1000000	-1000000	-1000000	-1000000	
7.040	0.1204	114.93	0.4379	344.87	-1000000	-1000000	-1000000	-1000000	
7.060	0.1205	114.65	0.4382	345.03	-1000000	-1000000	-1000000	-1000000	
7.080	0.1206	113.52	0.4385	345.19	-1000000	-1000000	-1000000	-1000000	
7.100	0.1207	111.87	0.4387	345.58	-1000000	-1000000	-1000000	-1000000	
7.120	0.1208	109.94	0.4388	345.93	-1000000	-1000000	-1000000	-1000000	
7.140	0.1208	108.80	0.4392	346.11	-1000000	-1000000	-1000000	-1000000	
7.160	0.1208	108.74	0.4395	345.98	-1000000	-1000000	-1000000	-1000000	
7.180	0.1209	110.01	0.4398	346.03	-1000000	-1000000	-1000000	-1000000	
7.200	0.1210	112.25	0.4402	346.28	-1000000	-1000000	-1000000	-1000000	
7.220	0.1210	114.82	0.4405	346.57	-1000000	-1000000	-1000000	-1000000	
7.240	0.1211	117.09	0.4407	346.80	-1000000	-1000000	-1000000	-1000000	
7.260	0.1211	118.24	0.4410	346.82	-1000000	-1000000	-1000000	-1000000	
7.280	0.1212	118.40	0.4413	346.79	-1000000	-1000000	-1000000	-1000000	
7.300	0.1212	117.64	0.4414	347.27	-1000000	-1000000	-1000000	-1000000	
7.320	0.1212	116.26	0.4415	347.58	-1000000	-1000000	-1000000	-1000000	
7.340	0.1213	114.74	0.4417	347.91	-1000000	-1000000	-1000000	-1000000	
7.360	0.1214	113.28	0.4419	348.24	-1000000	-1000000	-1000000	-1000000	
7.380	0.1215	112.30	0.4422	348.28	-1000000	-1000000	-1000000	-1000000	
7.400	0.1216	111.94	0.4425	348.18	-1000000	-1000000	-1000000	-1000000	
7.420	0.1217	111.92	0.4428	348.33	-1000000	-1000000	-1000000	-1000000	
7.440	0.1217	111.78	0.4431	348.46	-1000000	-1000000	-1000000	-1000000	
7.460	0.1217	112.00	0.4433	348.88	-1000000	-1000000	-1000000	-1000000	
7.480	0.1217	113.10	0.4435	349.31	-1000000	-1000000	-1000000	-1000000	
7.500	0.1218	114.80	0.4438	349.38	-1000000	-1000000	-1000000	-1000000	
7.520	0.1219	116.61	0.4440	349.22	-1000000	-1000000	-1000000	-1000000	
7.540	0.1219	118.04	0.4443	349.42	-1000000	-1000000	-1000000	-1000000	
7.560	0.1219	118.54	0.4447	349.46	-1000000	-1000000	-1000000	-1000000	
7.580	0.1219	118.65	0.4448	349.50	-1000000	-1000000	-1000000	-1000000	
7.600	0.1220	119.20	0.4448	349.81	-1000000	-1000000	-1000000	-1000000	
7.620	0.1221	119.85	0.4450	349.88	-1000000	-1000000	-1000000	-1000000	
7.640	0.1221	120.57	0.4453	350.06	-1000000	-1000000	-1000000	-1000000	
7.660	0.1221	121.77	0.4454	350.23	-1000000	-1000000	-1000000	-1000000	
7.680	0.1221	123.00	0.4456	350.23	-1000000	-1000000	-1000000	-1000000	
7.700	0.1221	124.26	0.4459	350.45	-1000000	-1000000	-1000000	-1000000	
7.720	0.1222	125.65	0.4461	351.06	-1000000	-1000000	-1000000	-1000000	
7.740	0.1222	126.86	0.4461	350.96	-1000000	-1000000	-1000000	-1000000	
7.760	0.1222	127.98	0.4461	350.49	-1000000	-1000000	-1000000	-1000000	
7.780	0.1222	129.02	0.4461	350.40	-1000000	-1000000	-1000000	-1000000	
7.800	0.1221	130.18	0.4461	350.66	-1000000	-1000000	-1000000	-1000000	
7.820	0.1221	131.21	0.4460	350.54	-1000000	-1000000	-1000000	-1000000	
7.840	0.1221	132.09	0.4460	350.56	-1000000	-1000000	-1000000	-1000000	
7.860	0.1221	132.93	0.4461	350.66	-1000000	-1000000	-1000000	-1000000	
7.880	0.1221	133.73	0.4462	350.88	-1000000	-1000000	-1000000	-1000000	
7.900	0.1221	134.57	0.4461	350.64	-1000000	-1000000	-1000000	-1000000	
7.920	0.1221	135.74	0.4461	350.59	-1000000	-1000000	-1000000	-1000000	
7.940	0.1222	136.91	0.4461	350.27	-1000000	-1000000	-1000000	-1000000	
7.960	0.1221	137.86	0.4461	350.21	-1000000	-1000000	-1000000	-1000000	
7.980	0.1221	138.80	0.4461	350.25	-1000000	-1000000	-1000000	-1000000	
8.000	0.1220	139.70	0.4461	350.48	-1000000	-1000000	-1000000	-1000000	
8.020	0.1220	140.20	0.4461	350.56	-1000000	-1000000	-1000000	-1000000	
8.040	0.1220	140.97	0.4461	350.57	-1000000	-1000000	-1000000	-1000000	
8.060	0.1220	141.99	0.4461	350.47	-1000000	-1000000	-1000000	-1000000	
8.080	0.1221	142.94	0.4459	350.62	-1000000	-1000000	-1000000	-1000000	
8.100	0.1221	143.66	0.4457	350.74	-1000000	-1000000	-1000000	-1000000	
8.120	0.1220	144.36	0.4455	350.83	-1000000	-1000000	-1000000	-1000000	
8.140	0.1220	144.77	0.4454	350.56	-1000000	-1000000	-1000000	-1000000	
8.160	0.1220	144.93	0.4454	350.37	-1000000	-1000000	-1000000	-1000000	
8.180	0.1220	145.11	0.4453	350.32	-1000000	-1000000	-1000000	-1000000	
8.200	0.1219	145.79	0.4450	350.29	-1000000	-1000000	-1000000	-1000000	
8.220	0.1219	146.53	0.4448	350.26	-1000000	-1000000	-1000000	-1000000	
8.240	0.1219	147.04	0.4447	350.28	-1000000	-1000000	-1000000	-1000000	
8.260	0.1220	146.84	0.4445	350.27	-1000000	-1000000	-1000000	-1000000	
8.280	0.1219	145.89	0.4442	350.30	-1000000	-1000000	-1000000	-1000000	
8.300	0.1218	145.19	0.4440	350.59	-1000000	-1000000	-1000000	-1000000	
8.320	0.1218	144.52	0.4438	350.72	-1000000	-1000000	-1000000	-1000000	
8.340	0.1217	143.77	0.4435	350.49	-1000000	-1000000	-1000000	-1000000	
8.360	0.1217	143.49	0.4434	350.25	-1000000	-1000000	-1000000	-1000000	
8.380	0.1218	143.32	0.4433	350.32	-1000000	-1000000	-1000000	-1000000	
8.400	0.1217	142.79	0.4433	350.45	-1000000	-1000000	-1000000	-1000000	
8.420	0.1218	142.31	0.4431	350.58	-1000000	-1000000	-1000000	-1000000	
8.440	0.1218	141.70	0.4429	350.41	-1000000	-1000000	-1000000	-1000000	
8.460	0.1217	140.87	0.4428	350.59	-1000000	-1000000	-1000000	-1000000	
8.480	0.1216	140.37	0.4427	350.63	-1000000	-1000000	-1000000	-1000000	
8.500	0.1216	140.16	0.4427	350.69	-1000000	-1000000	-1000000	-1000000	
8.520	0.1215	139.51	0.4424	350.71	-1000000	-1000000	-1000000	-1000000	
8.540	0.1215	138.84	0.4422	350.47	-1000000	-1000000	-1000000	-1000000	
8.560	0.1215	138.60	0.4421	350.64	-1000000	-1000000	-1000000	-1000000	
8.580	0.1215	138.62	0.4420	350.78	-1000000	-1000000	-1000000	-1000000	
8.600	0.1215	138.31	0.4420	350.58	-1000000	-1000000	-1000000	-1000000	
8.620	0.1215	137.61	0.4420	350.39	-1000000	-1000000	-1000000	-1000000	
8.640	0.1214	137.27	0.4420	350.15	-1000000	-1000000	-1000000	-1000000	
8.660	0.1214	136.83	0.4421	350.13	-1000000	-1000000	-1000000	-1000000	
8.680	0.1214	135.98	0.4419	350.44	-1000000	-1000000	-1000000	-1000000	
8.700	0.1214	135.03	0.4416	350.66	-1000000	-1000000	-1000000	-1000000	
8.720	0.1214	133.97	0.4414	350.53	-1000000	-1000000	-1000000	-1000000	
8.740	0.1214	132.77	0.4414	350.39	-1000000	-1000000	-1000000	-1000000	
8.760	0.1214	131.94	0.4414	350.48	-1000000	-1000000	-1000000	-1000000	
8.780	0.1214	131.86	0.4414	350.95	-1000000	-1000000	-1000000	-1000000	
8.800	0.1214	131.83	0.4414	350.97	-1000000	-1000000	-1000000	-1000000	
8.820	0.1214	131.19	0.4414	351.03	-1000000	-1000000	-1000000	-1000000	
8.840	0.1214	130.46	0.4414	350.78	-1000000	-1000000	-1000000	-1000000	
8.860	0.1214	130.24	0.4414	350.67	-1000000	-1000000	-1000000	-1000000	
8.880	0.1214	130.14	0.4413	350.55	-1000000	-1000000	-1000000	-1000000	
8.900	0.1214	130.12	0.4414	350.37	-1000000	-1000000	-1000000	-1000000	
8.920	0.1214	130.21	0.4413	350.44	-1000000	-1000000	-1000000	-1000000	
8.940	0.1214	130.86	0.4413	350.70	-1000000	-1000000	-1000000	-1000000	
8.960	0.1214	131.51	0.4414	350.70	-1000000	-1000000	-1000000	-1000000	
8.980	0.1214	132.23	0.4414	350.42	-1000000	-1000000	-1000000	-1000000	
9.000	0.1214	133.14	0.4414	350.29	-1000000	-1000000	-1000000	-1000000	
9.020	0.1213	133.89	0.4414	350.56	-1000000	-1000000	-1000000	-1000000	
9.040	0.1213	134.78	0.4413	350.86	-1000000	-1000000	-1000000	-1000000	
9.060	0.1213	135.83	0.4413	350.90	-1000000	-1000000	-1000000	-1000000	
9.080	0.1213	136.97	0.4413	350.72	-1000000	-1000000	-1000000	-1000000	
9.100	0.1213	137.99	0.4414	350.45	-1000000	-1000000	-1000000	-1000000	
9.120	0.1213	138.74	0.4414	350.36	-1000000	-1000000	-1000000	-1000000	
9.140	0.1213	139.71	0.4414	350.46	-1000000	-1000000	-1000000	-1000000	
9.160	0.1212	140.17	0.4414	350.78	-1000000	-1000000	-1000000	-1000000	
9.180	0.1212	140.51	0.4415	351.18	-1000000	-1000000	-1000000	-1000000	
9.200	0.1211	141.37	0.4413	351.25	-1000000	-1000000	-1000000	-1000000	
9.220	0.1211	142.10	0.4410	351.09	-1000000	-1000000	-1000000	-1000000	
9.240	0.1211	142.00	0.4408	350.91	-1000000	-1000000	-1000000	-1000000	
9.260	0.1211	141.09	0.4407	350.77	-1000000	-1000000	-1000000	-1000000	
9.280	0.1211	140.40	0.4407	350.88	-1000000	-1000000	-1000000	-1000000	
9.300	0.1211	140.28	0.4407	350.94	-1000000	-1000000	-1000000	-1000000	
9.320	0.1211	140.01	0.4407	350.48	-1000000	-1000000	-1000000	-1000000	
9.340	0.1210	139.42	0.4404	350.06	-1000000	-1000000	-1000000	-1000000	
9.360	0.1210	138.98	0.4401	349.89	-1000000	-1000000	-1000000	-1000000	
9.380	0.1209	138.72	0.4400	350.03	-1000000	-1000000	-1000000	-1000000	
9.400	0.1210	138.68	0.4400	349.98	-1000000	-1000000	-1000000	-1000000	
9.420	0.1210	138.48	0.4400	350.26	-1000000	-1000000	-1000000	-1000000	
9.440	0.1210	138.36	0.4400	350.65	-1000000	-1000000	-1000000	-1000000	
9.460	0.1209	138.39	0.4400	350.63	-1000000	-1000000	-1000000	-1000000	
9.480	0.1209	137.87	0.4400	350.21	-1000000	-1000000	-1000000	-1000000	
9.500	0.1209	137.23	0.4398	350.03	-1000000	-1000000	-1000000	-1000000	
9.520	0.1209	136.97	0.4395	350.07	-1000000	-1000000	-1000000	-1000000	
9.540	0.1208	136.95	0.4394	349.99	-1000000	-1000000	-1000000	-1000000	
9.560	0.1207	136.86	0.4394	350.14	-1000000	-1000000	-1000000	-1000000	
9.580	0.1207	136.27	0.4393	350.33	-1000000	-1000000	-1000000	-1000000	
9.600	0.1208	135.36	0.4393	350.26	-1000000	-1000000	-1000000	-1000000	
9.620	0.1209	133.95	0.4393	350.47	-1000000	-1000000	-1000000	-1000000	
9.640	0.1209	132.47	0.4394	350.36	-1000000	-1000000	-1000000	-1000000	
9.660	0.1209	131.15	0.4394	350.08	-1000000	-1000000	-1000000	-1000000	
9.680	0.1208	129.65	0.4394	350.15	-1000000	-1000000	-1000000	-1000000	
9.700	0.1208	128.16	0.4393	350.53	-1000000	-1000000	-1000000	-1000000	
9.720	0.1208	127.11	0.4393	350.49	-1000000	-1000000	-1000000	-1000000	
9.740	0.1208	126.04	0.4394	350.10	-1000000	-1000000	-1000000	-1000000	
9.760	0.1208	125.05	0.4394	350.19	-1000000	-1000000	-1000000	-1000000	
9.780	0.1209	124.07	0.4394	350.53	-1000000	-1000000	-1000000	-1000000	
9.800	0.1208	123.58	0.4393	350.57	-1000000	-1000000	-1000000	-1000000	
9.820	0.1208	123.54	0.4393	350.31	-1000000	-1000000	-1000000	-1000000	
9.840	0.1208	124.08	0.4394	350.17	-1000000	-1000000	-1000000	-1000000	
9.860	0.1207	124.73	0.4398	350.71	-1000000	-1000000	-1000000	-1000000	
9.880	0.1208	125.34	0.4400	351.28	-1000000	-1000000	-1000000	-1000000	
9.900	0.1208	126.29	0.4400	351.21	-1000000	-1000000	-1000000	-1000000	
9.920	0.1208	127.17	0.4400	350.95	-1000000	-1000000	-1000000	-1000000	
9.940	0.1208	128.08	0.4400	350.67	-1000000	-1000000	-1000000	-1000000	
9.960	0.1207	128.62	0.4400	350.54	-1000000	-1000000	-1000000	-1000000	
9.980	0.1207	129.47	0.4401	350.62	-1000000	-1000000	-1000000	-1000000	
10.00	0.1207	130.73	0.4401	351.06	-1000000	-1000000	-1000000	-1000000	
10.02	0.1207	131.82	0.4400	351.03	-1000000	-1000000	-1000000	-1000000	
10.04	0.1208	132.66	0.4400	350.66	-1000000	-1000000	-1000000	-1000000	
10.06	0.1208	133.51	0.4400	350.46	-1000000	-1000000	-1000000	-1000000	
10.08	0.1208	134.54	0.4400	350.61	-1000000	-1000000	-1000000	-1000000	
10.10	0.1207	135.67	0.4400	350.50	-1000000	-1000000	-1000000	-1000000	
10.12	0.1208	136.75	0.4400	350.45	-1000000	-1000000	-1000000	-1000000	
10.14	0.1208	137.85	0.4400	350.55	-1000000	-1000000	-1000000	-1000000	
10.16	0.1208	138.90	0.4401	350.66	-1000000	-1000000	-1000000	-1000000	
10.18	0.1207	139.89	0.4401	350.49	-1000000	-1000000	-1000000	-1000000	
10.20	0.1206	140.95	0.4401	350.20	-1000000	-1000000	-1000000	-1000000	
10.22	0.1206	142.04	0.4400	350.16	-1000000	-1000000	-1000000	-1000000	
10.24	0.1206	143.44	0.4400	350.59	-1000000	-1000000	-1000000	-1000000	
10.26	0.1207	144.63	0.4399	350.66	-1000000	-1000000	-1000000	-1000000	
10.28	0.1206	145.54	0.4396	350.64	-1000000	-1000000	-1000000	-1000000	
10.30	0.1206	146.44	0.4394	350.68	-1000000	-1000000	-1000000	-1000000	
10.32	0.1206	146.95	0.4394	350.86	-1000000	-1000000	-1000000	-1000000	
10.34	0.1206	146.95	0.4393	350.77	-1000000	-1000000	-1000000	-1000000	
10.36	0.1205	146.52	0.4391	350.38	-1000000	-1000000	-1000000	-1000000	
10.38	0.1205	145.65	0.4388	350.35	-1000000	-1000000	-1000000	-1000000	
10.40	0.1204	144.35	0.4387	350.48	-1000000	-1000000	-1000000	-1000000	
10.42	0.1204	143.17	0.4384	350.47	-1000000	-1000000	-1000000	-1000000	
10.44	0.1204	142.05	0.4381	350.23	-1000000	-1000000	-1000000	-1000000	
10.46	0.1204	140.77	0.4380	349.90	-1000000	-1000000	-1000000	-1000000	
10.48	0.1205	139.84	0.4380	350.06	-1000000	-1000000	-1000000	-1000000	
10.50	0.1204	139.02	0.4380	350.46	-1000000	-1000000	-1000000	-1000000	
10.52	0.1203	138.40	0.4379	350.51	-1000000	-1000000	-1000000	-1000000	
10.54	0.1203	137.59	0.4378	350.09	-1000000	-1000000	-1000000	-1000000	
10.56	0.1202	136.95	0.4375	349.73	-1000000	-1000000	-1000000	-1000000	
10.58	0.1202	136.51	0.4374	349.66	-1000000	-1000000	-1000000	-1000000	
10.60	0.1202	135.73	0.4374	349.55	-1000000	-1000000	-1000000	-1000000	
10.62	0.1203	135.08	0.4374	349.75	-1000000	-1000000	-1000000	-1000000	
10.64	0.1203	134.83	0.4374	349.96	-1000000	-1000000	-1000000	-1000000	
10.66	0.1203	134.34	0.4374	349.94	-1000000	-1000000	-1000000	-1000000	
10.68	0.1203	133.79	0.4374	349.92	-1000000	-1000000	-1000000	-1000000	
10.70	0.1202	133.47	0.4374	349.96	-1000000	-1000000	-1000000	-1000000	
10.72	0.1202	133.13	0.4374	349.99	-1000000	-1000000	-1000000	-1000000	
10.74	0.1202	132.06	0.4373	350.12	-1000000	-1000000	-1000000	-1000000	
10.76	0.1202	130.60	0.4372	350.36	-1000000	-1000000	-1000000	-1000000	
10.78	0.1203	128.76	0.4372	350.52	-1000000	-1000000	-1000000	-1000000	
10.80	0.1202	126.19	0.4372	350.50	-1000000	-1000000	-1000000	-1000000	
10.82	0.1201	123.48	0.4372	350.43	-1000000	-1000000	-1000000	-1000000	
10.84	0.1202	121.03	0.4373	350.18	-1000000	-1000000	-1000000	-1000000	
10.86	0.1202	118.89	0.4373	350.30	-1000000	-1000000	-1000000	-1000000	
10.88	0.1203	117.20	0.4374	350.56	-1000000	-1000000	-1000000	-1000000	
10.90	0.1202	116.11	0.4377	350.86	-1000000	-1000000	-1000000	-1000000	
10.92	0.1202	115.37	0.4379	350.79	-1000000	-1000000	-1000000	-1000000	
10.94	0.1202	115.21	0.4380	350.76	-1000000	-1000000	-1000000	-1000000	
10.96	0.1202	115.70	0.4382	351.13	-1000000	-1000000	-1000000	-1000000	
10.98	0.1203	116.29	0.4384	351.23	-1000000	-1000000	-1000000	-1000000	
11.00	0.1203	117.39	0.4386	350.90	-1000000	-1000000	-1000000	-1000000	
11.02	0.1202	118.81	0.4389	351.07	-1000000	-1000000	-1000000	-1000000	
11.04	0.1202	120.35	0.4392	350.99	-1000000	-1000000	-1000000	-1000000	
11.06	0.1202	121.99	0.4393	350.94	-1000000	-1000000	-1000000	-1000000	
11.08	0.1203	123.75	0.4394	351.12	-1000000	-1000000	-1000000	-1000000	
11.10	0.1203	125.54	0.4395	351.40	-1000000	-1000000	-1000000	-1000000	
11.12	0.1203	127.31	0.4398	351.33	-1000000	-1000000	-1000000	-1000000	
11.14	0.1202	129.03	0.4400	351.21	-1000000	-1000000	-1000000	-1000000	
11.16	0.1202	130.80	0.4401	350.95	-1000000	-1000000	-1000000	-1000000	
11.18	0.1202	132.45	0.4401	350.69	-1000000	-1000000	-1000000	-1000000	
11.20	0.1203	133.57	0.4400	350.94	-1000000	-1000000	-1000000	-1000000	
11.22	0.1202	134.82	0.4400	350.89	-1000000	-1000000	-1000000	-1000000	
11.24	0.1202	136.40	0.4400	350.75	-1000000	-1000000	-1000000	-1000000	
11.26	0.1201	137.75	0.4400	350.87	-1000000	-1000000	-1000000	-1000000	
11.28	0.1201	138.81	0.4400	350.99	-1000000	-1000000	-1000000	-1000000	
11.30	0.1201	140.19	0.4400	350.89	-1000000	-1000000	-1000000	-1000000	
11.32	0.1202	141.75	0.4399	350.68	-1000000	-1000000	-1000000	-1000000	
11.34	0.1202	143.05	0.4396	350.39	-1000000	-1000000	-1000000	-1000000	
11.36	0.1202	143.97	0.4394	350.24	-1000000	-1000000	-1000000	-1000000	
11.38	0.1201	144.79	0.4393	350.30	-1000000	-1000000	-1000000	-1000000	
11.40	0.1201	145.43	0.4393	350.47	-1000000	-1000000	-1000000	-1000000	
11.42	0.1201	146.30	0.4392	350.38	-1000000	-1000000	-1000000	-1000000	
11.44	0.1200	147.07	0.4390	350.29	-1000000	-1000000	-1000000	-1000000	
11.46	0.1199	147.95	0.4387	350.45	-1000000	-1000000	-1000000	-1000000	
11.48	0.1200	148.54	0.4387	350.75	-1000000	-1000000	-1000000	-1000000	
11.50	0.1200	148.70	0.4385	350.90	-1000000	-1000000	-1000000	-1000000	
11.52	0.1200	148.81	0.4382	350.69	-1000000	-1000000	-1000000	-1000000	
11.54	0.1200	148.81	0.4381	350.39	-1000000	-1000000	-1000000	-1000000	
11.56	0.1199	148.72	0.4380	350.12	-1000000	-1000000	-1000000	-1000000	
11.58	0.1199	148.76	0.4376	349.88	-1000000	-1000000	-1000000	-1000000	
11.60	0.1198	148.76	0.4373	349.69	-1000000	-1000000	-1000000	-1000000	
11.62	0.1198	148.31	0.4372	349.95	-1000000	-1000000	-1000000	-1000000	
11.64	0.1198	147.31	0.4370	350.08	-1000000	-1000000	-1000000	-1000000	
11.66	0.1198	146.18	0.4368	350.01	-1000000	-1000000	-1000000	-1000000	
11.68	0.1198	145.15	0.4367	349.93	-1000000	-1000000	-1000000	-1000000	
11.70	0.1198	143.84	0.4365	349.80	-1000000	-1000000	-1000000	-1000000	
11.72	0.1197	142.28	0.4362	349.92	-1000000	-1000000	-1000000	-1000000	
11.74	0.1197	140.68	0.4360	349.98	-1000000	-1000000	-1000000	-1000000	
11.76	0.1196	139.27	0.4360	349.84	-1000000	-1000000	-1000000	-1000000	
11.78	0.1196	137.86	0.4360	349.80	-1000000	-1000000	-1000000	-1000000	
11.80	0.1196	136.95	0.4360	349.84	-1000000	-1000000	-1000000	-1000000	
11.82	0.1196	136.15	0.4359	350.06	-1000000	-1000000	-1000000	-1000000	
11.84	0.1196	135.43	0.4357	350.13	-1000000	-1000000	-1000000	-1000000	
11.86	0.1196	135.24	0.4354	349.78	-1000000	-1000000	-1000000	-1000000	
11.88	0.1196	135.20	0.4353	349.70	-1000000	-1000000	-1000000	-1000000	
11.90	0.1196	135.21	0.4354	349.96	-1000000	-1000000	-1000000	-1000000	
11.92	0.1196	135.25	0.4354	349.51	-1000000	-1000000	-1000000	-1000000	
11.94	0.1196	135.23	0.4353	349.25	-1000000	-1000000	-1000000	-1000000	
11.96	0.1195	135.18	0.4352	349.37	-1000000	-1000000	-1000000	-1000000	
11.98	0.1194	134.61	0.4353	349.55	-1000000	-1000000	-1000000	-1000000	
12.00	0.1195	133.88	0.4353	349.69	-1000000	-1000000	-1000000	-1000000	
12.02	0.1195	133.05	0.4353	349.59	-1000000	-1000000	-1000000	-1000000	
12.04	0.1195	131.80	0.4354	349.69	-1000000	-1000000	-1000000	-1000000	
12.06	0.1196	129.98	0.4354	349.83	-1000000	-1000000	-1000000	-1000000	
12.08	0.1196	127.76	0.4353	349.81	-1000000	-1000000	-1000000	-1000000	
12.10	0.1195	125.11	0.4352	350.13	-1000000	-1000000	-1000000	-1000000	
12.12	0.1195	122.45	0.4352	350.15	-1000000	-1000000	-1000000	-1000000	
12.14	0.1195	119.67	0.4354	350.24	-1000000	-1000000	-1000000	-1000000	
12.16	0.1195	116.76	0.4355	350.22	-1000000	-1000000	-1000000	-1000000	
12.18	0.1195	114.27	0.4358	350.00	-1000000	-1000000	-1000000	-1000000	
12.20	0.1196	112.59	0.4360	350.01	-1000000	-1000000	-1000000	-1000000	
12.22	0.1196	111.71	0.4362	350.17	-1000000	-1000000	-1000000	-1000000	
12.24	0.1196	111.61	0.4365	350.35	-1000000	-1000000	-1000000	-1000000	
12.26	0.1196	112.23	0.4367	350.44	-1000000	-1000000	-1000000	-1000000	
12.28	0.1195	113.35	0.4370	350.57	-1000000	-1000000	-1000000	-1000000	
12.30	0.1196	114.41	0.4372	350.41	-1000000	-1000000	-1000000	-1000000	
12.32	0.1196	115.58	0.4373	350.35	-1000000	-1000000	-1000000	-1000000	
12.34	0.1196	117.45	0.4376	350.63	-1000000	-1000000	-1000000	-1000000	
12.36	0.1196	119.51	0.4379	350.88	-1000000	-1000000	-1000000	-1000000	
12.38	0.1196	121.39	0.4380	350.58	-1000000	-1000000	-1000000	-1000000	
12.40	0.1196	123.52	0.4381	350.42	-1000000	-1000000	-1000000	-1000000	
12.42	0.1196	125.71	0.4384	350.57	-1000000	-1000000	-1000000	-1000000	
12.44	0.1196	127.80	0.4386	350.39	-1000000	-1000000	-1000000	-1000000	
12.46	0.1195	129.68	0.4387	350.17	-1000000	-1000000	-1000000	-1000000	
12.48	0.1195	131.50	0.4388	350.36	-1000000	-1000000	-1000000	-1000000	
12.50	0.1195	133.41	0.4387	350.18	-1000000	-1000000	-1000000	-1000000	
12.52	0.1195	135.10	0.4387	349.82	-1000000	-1000000	-1000000	-1000000	
12.54	0.1195	136.66	0.4387	349.80	-1000000	-1000000	-1000000	-1000000	
12.56	0.1195	138.02	0.4387	349.98	-1000000	-1000000	-1000000	-1000000	
12.58	0.1195	139.23	0.4387	350.15	-1000000	-1000000	-1000000	-1000000	
12.60	0.1195	140.36	0.4386	350.40	-1000000	-1000000	-1000000	-1000000	
12.62	0.1195	141.46	0.4712	350.37	-1000000	-1000000	-1000000	-1000000	
12.64	0.1195	142.00	0.7354	350.25	-1000000	-1000000	-1000000	-1000000	
12.66	0.1194	142.58	1.027	350.14	-1000000	-1000000	-1000000	-1000000	
12.68	0.1194	143.34	1.146	350.29	-1000000	-1000000	-1000000	-1000000	
12.70	0.1194	144.26	1.161	350.49	-1000000	-1000000	-1000000	-1000000	
12.72	0.1194	144.97	1.155	350.36	-1000000	-1000000	-1000000	-1000000	
12.74	0.1194	145.45	1.153	350.25	-1000000	-1000000	-1000000	-1000000	
12.76	0.1194	145.32	1.153	350.09	-1000000	-1000000	-1000000	-1000000	
12.78	0.1194	144.47	1.153	349.95	-1000000	-1000000	-1000000	-1000000	
12.80	0.1193	143.60	1.154	350.01	-1000000	-1000000	-1000000	-1000000	
12.82	0.1193	142.67	1.154	349.91	-1000000	-1000000	-1000000	-1000000	
12.84	0.1194	142.05	1.153	349.85	-1000000	-1000000	-1000000	-1000000	
12.86	0.1194	141.83	1.153	349.77	-1000000	-1000000	-1000000	-1000000	
12.88	0.1194	141.83	1.152	349.64	-1000000	-1000000	-1000000	-1000000	
12.90	0.1194	141.94	1.153	349.60	-1000000	-1000000	-1000000	-1000000	
12.92	0.1194	142.27	1.154	349.73	-1000000	-1000000	-1000000	-1000000	
12.94	0.1194	143.18	1.154	349.90	-1000000	-1000000	-1000000	-1000000	
12.96	0.1195	144.75	1.154	350.14	-1000000	-1000000	-1000000	-1000000	
12.98	0.1195	148.14	1.154	350.56	-1000000	-1000000	-1000000	-1000000	
13.00	0.1196	154.15	1.155	350.62	-1000000	-1000000	-1000000	-1000000	
13.02	0.1197	162.97	1.156	350.08	-1000000	-1000000	-1000000	-1000000	
13.04	0.1198	174.91	1.157	349.84	-1000000	-1000000	-1000000	-1000000	
13.06	0.1201	190.27	1.158	349.96	-1000000	-1000000	-1000000	-1000000	
13.08	0.1204	209.25	1.159	350.15	-1000000	-1000000	-1000000	-1000000	
13.10	0.1206	232.60	1.160	350.56	-1000000	-1000000	-1000000	-1000000	
13.12	0.1209	261.00	1.162	350.45	-1000000	-1000000	-1000000	-1000000	
13.14	0.1212	294.92	1.164	350.25	-1000000	-1000000	-1000000	-1000000	
13.16	0.1216	334.19	1.165	350.05	-1000000	-1000000	-1000000	-1000000	
13.18	0.1219	378.46	1.167	350.26	-1000000	-1000000	-1000000	-1000000	
13.20	0.1222	426.86	1.169	350.36	-1000000	-1000000	-1000000	-1000000	
13.22	0.1226	478.06	1.171	350.09	-1000000	-1000000	-1000000	-1000000	
13.24	0.1230	531.44	1.173	349.93	-1000000	-1000000	-1000000	-1000000	
13.26	0.1234	587.81	1.175	350.05	-1000000	-1000000	-1000000	-1000000	
13.28	0.1238	647.33	1.178	350.13	-1000000	-1000000	-1000000	-1000000	
13.30	0.1242	709.42	1.180	349.88	-1000000	-1000000	-1000000	-1000000	
13.32	0.1247	774.20	1.183	349.69	-1000000	-1000000	-1000000	-1000000	
13.34	0.1251	842.23	1.186	349.97	-1000000	-1000000	-1000000	-1000000	
13.36	0.1256	912.60	1.188	349.94	-1000000	-1000000	-1000000	-1000000	
13.38	0.1261	985.51	1.191	349.96	-1000000	-1000000	-1000000	-1000000	
13.40	0.1267	1061.1	1.194	349.94	-1000000	-1000000	-1000000	-1000000	
13.42	0.1272	1139.1	1.198	349.80	-1000000	-1000000	-1000000	-1000000	
13.44	0.1277	1219.4	1.201	349.81	-1000000	-1000000	-1000000	-1000000	
13.46	0.1282	1302.4	1.204	349.94	-1000000	-1000000	-1000000	-1000000	
13.48	0.1288	1388.2	1.208	350.00	-1000000	-1000000	-1000000	-1000000	
13.50	0.1294	1476.3	1.212	350.09	-1000000	-1000000	-1000000	-1000000	
13.52	0.1299	1566.5	1.216	350.12	-1000000	-1000000	-1000000	-1000000	
13.54	0.1305	1658.3	1.219	350.21	-1000000	-1000000	-1000000	-1000000	
13.56	0.1312	1752.3	1.223	350.19	-1000000	-1000000	-1000000	-1000000	
13.58	0.1319	1848.0	1.228	350.15	-1000000	-1000000	-1000000	-1000000	
13.60	0.1326	1945.3	1.232	350.37	-1000000	-1000000	-1000000	-1000000	
13.62	0.1333	2044.5	1.236	350.50	-1000000	-1000000	-1000000	-1000000	
13.64	0.1338	2146.3	1.241	350.48	-1000000	-1000000	-1000000	-1000000	
13.66	0.1345	2250.4	1.245	350.45	-1000000	-1000000	-1000000	-1000000	
13.68	0.1352	2357.4	1.250	350.31	-1000000	-1000000	-1000000	-1000000	
13.70	0.1359	2467.2	1.255	350.17	-1000000	-1000000	-1000000	-1000000	
13.72	0.1366	2579.7	1.260	350.30	-1000000	-1000000	-1000000	-1000000	
13.74	0.1373	2694.7	1.266	350.26	-1000000	-1000000	-1000000	-1000000	
13.76	0.1380	2812.3	1.271	350.00	-1000000	-1000000	-1000000	-1000000	
13.78	0.1387	2932.1	1.276	350.22	-1000000	-1000000	-1000000	-1000000	
13.80	0.1395	3053.9	1.282	350.14	-1000000	-1000000	-1000000	-1000000	
13.82	0.1403	3177.9	1.287	349.88	-1000000	-1000000	-1000000	-1000000	
13.84	0.1410	3303.7	1.293	349.97	-1000000	-1000000	-1000000	-1000000	
13.86	0.1417	3431.6	1.299	350.09	-1000000	-1000000	-1000000	-1000000	
13.88	0.1425	3561.3	1.305	349.90	-1000000	-1000000	-1000000	-1000000	
13.90	0.1433	3692.8	1.311	349.62	-1000000	-1000000	-1000000	-1000000	
13.92	0.1441	3826.1	1.317	349.88	-1000000	-1000000	-1000000	-1000000	
13.94	0.1449	3961.3	1.323	349.99	-1000000	-1000000	-1000000	-1000000	
13.96	0.1456	4098.2	1.330	349.86	-1000000	-1000000	-1000000	-1000000	
13.98	0.1465	4236.0	1.337	349.72	-1000000	-1000000	-1000000	-1000000	
14.00	0.1473	4375.0	1.343	349.55	-1000000	-1000000	-1000000	-1000000	
14.02	0.1482	4514.8	1.350	349.49	-1000000	-1000000	-1000000	-1000000	
14.04	0.1489	4656.1	1.357	349.67	-1000000	-1000000	-1000000	-1000000	
14.06	0.1498	4799.0	1.364	349.60	-1000000	-1000000	-1000000	-1000000	
14.08	0.1507	4943.1	1.371	349.46	-1000000	-1000000	-1000000	-1000000	
14.10	0.1516	5088.9	1.379	349.67	-1000000	-1000000	-1000000	-1000000	
14.12	0.1525	5236.3	1.386	349.88	-1000000	-1000000	-1000000	-1000000	
14.14	0.1534	5384.9	1.393	349.99	-1000000	-1000000	-1000000	-1000000	
14.16	0.1543	5534.9	1.401	349.88	-1000000	-1000000	-1000000	-1000000	
14.18	0.1551	5686.4	1.409	349.83	-1000000	-1000000	-1000000	-1000000	
14.20	0.1560	5838.2	1.417	349.60	-1000000	-1000000	-1000000	-1000000	
14.22	0.1570	5990.5	1.425	349.61	-1000000	-1000000	-1000000	-1000000	
14.24	0.1579	6143.9	1.433	349.86	-1000000	-1000000	-1000000	-1000000	
14.26	0.1589	6299.0	1.441	349.96	-1000000	-1000000	-1000000	-1000000	
14.28	0.1598	6455.8	1.450	349.92	-1000000	-1000000	-1000000	-1000000	
14.30	0.1608	6614.5	1.458	349.84	-1000000	-1000000	-1000000	-1000000	
14.32	0.1618	6775.4	1.467	349.72	-1000000	-1000000	-1000000	-1000000	
14.34	0.1629	6938.0	1.476	349.97	-1000000	-1000000	-1000000	-1000000	
14.36	0.1639	7102.0	1.484	350.10	-1000000	-1000000	-1000000	-1000000	
14.38	0.1649	7267.4	1.493	350.17	-1000000	-1000000	-1000000	-1000000	
14.40	0.1659	7434.3	1.502	350.17	-1000000	-1000000	-1000000	-1000000	
14.42	0.1670	7602.3	1.511	350.22	-1000000	-1000000	-1000000	-1000000	
14.44	0.1681	7771.9	1.521	350.06	-1000000	-1000000	-1000000	-1000000	
14.46	0.1691	7943.5	1.530	349.92	-1000000	-1000000	-1000000	-1000000	
14.48	0.1702	8116.4	1.540	349.76	-1000000	-1000000	-1000000	-1000000	
14.50	0.1713	8290.4	1.550	349.63	-1000000	-1000000	-1000000	-1000000	
14.52	0.1725	8465.7	1.559	349.68	-1000000	-1000000	-1000000	-1000000	
14.54	0.1736	8642.6	1.569	349.65	-1000000	-1000000	-1000000	-1000000	
14.56	0.1749	8821.2	1.579	349.47	-1000000	-1000000	-1000000	-1000000	
14.58	0.1762	9000.8	1.590	349.61	-1000000	-1000000	-1000000	-1000000	
14.60	0.1774	9181.4	1.600	350.00	-1000000	-1000000	-1000000	-1000000	
14.62	0.1788	9361.9	1.610	350.01	-1000000	-1000000	-1000000	-1000000	
14.64	0.1802	9542.1	1.621	349.87	-1000000	-1000000	-1000000	-1000000	
14.66	0.1817	9722.2	1.632	349.81	-1000000	-1000000	-1000000	-1000000	
14.68	0.1833	9902.2	1.642	349.58	-1000000	-1000000	-1000000	-1000000	
14.70	0.1851	10082	1.653	349.75	-1000000	-1000000	-1000000	-1000000	
14.72	0.1869	10260	1.664	349.80	-1000000	-1000000	-1000000	-1000000	
14.74	0.1889	10435	1.675	349.56	-1000000	-1000000	-1000000	-1000000	
14.76	0.1912	10606	1.687	349.62	-1000000	-1000000	-1000000	-1000000	
14.78	0.1940	10774	1.698	349.62	-1000000	-1000000	-1000000	-1000000	
14.80	0.1974	10935	1.710	349.47	-1000000	-1000000	-1000000	-1000000	
14.82	0.2018	11088	1.721	349.47	-1000000	-1000000	-1000000	-1000000	
14.84	0.2080	11227	1.733	349.80	-1000000	-1000000	-1000000	-1000000	
14.86	0.2166	11345	1.745	349.83	-1000000	-1000000	-1000000	-1000000	
14.88	0.2272	11433	1.757	349.87	-1000000	-1000000	-1000000	-1000000	
14.90	0.2379	11488	1.769	350.14	-1000000	-1000000	-1000000	-1000000	
14.92	0.2480	11514	1.781	350.37	-1000000	-1000000	-1000000	-1000000	
14.94	0.2578	11522	1.793	350.35	-1000000	-1000000	-1000000	-1000000	
14.96	0.2675	11523	1.806	350.40	-1000000	-1000000	-1000000	-1000000	
14.98	0.2772	11527	1.818	350.73	-1000000	-1000000	-1000000	-1000000	
15.00	0.2868	11539	1.831	350.91	-1000000	-1000000	-1000000	-1000000	
15.02	0.2962	11559	1.844	350.63	-1000000	-1000000	-1000000	-1000000	
15.04	0.3051	11581	1.857	350.77	-1000000	-1000000	-1000000	-1000000	
15.06	0.3136	11603	1.870	350.69	-1000000	-1000000	-1000000	-1000000	
15.08	0.3217	11623	1.883	350.66	-1000000	-1000000	-1000000	-1000000	
15.10	0.3296	11643	1.896	350.74	-1000000	-1000000	-1000000	-1000000	
15.12	0.3373	11664	1.910	350.68	-1000000	-1000000	-1000000	-1000000	
15.14	0.3450	11683	1.923	350.67	-1000000	-1000000	-1000000	-1000000	
15.16	0.3526	11702	1.937	350.80	-1000000	-1000000	-1000000	-1000000	
15.18	0.3601	11721	1.951	350.96	-1000000	-1000000	-1000000	-1000000	
15.20	0.3677	11739	1.965	351.25	-1000000	-1000000	-1000000	-1000000	
15.22	0.3754	11758	1.979	351.16	-1000000	-1000000	-1000000	-1000000	
15.24	0.3830	11776	1.993	350.92	-1000000	-1000000	-1000000	-1000000	
15.26	0.3905	11792	2.007	350.66	-1000000	-1000000	-1000000	-1000000	
15.28	0.3982	11808	2.022	350.31	-1000000	-1000000	-1000000	-1000000	
15.30	0.4061	11825	2.036	350.36	-1000000	-1000000	-1000000	-1000000	
15.32	0.4141	11842	2.051	350.87	-1000000	-1000000	-1000000	-1000000	
15.34	0.4223	11861	2.065	350.67	-1000000	-1000000	-1000000	-1000000	
15.36	0.4308	11880	2.080	350.56	-1000000	-1000000	-1000000	-1000000	
15.38	0.4396	11900	2.095	350.92	-1000000	-1000000	-1000000	-1000000	
15.40	0.4487	11920	2.110	350.98	-1000000	-1000000	-1000000	-1000000	
15.42	0.4580	11941	2.125	351.07	-1000000	-1000000	-1000000	-1000000	
15.44	0.4675	11961	2.141	351.31	-1000000	-1000000	-1000000	-1000000	
15.46	0.4772	11980	2.156	350.92	-1000000	-1000000	-1000000	-1000000	
15.48	0.4871	11999	2.172	350.75	-1000000	-1000000	-1000000	-1000000	
15.50	0.4972	12017	2.188	350.96	-1000000	-1000000	-1000000	-1000000	
15.52	0.5072	12034	2.203	351.17	-1000000	-1000000	-1000000	-1000000	
15.54	0.5174	12051	2.219	351.39	-1000000	-1000000	-1000000	-1000000	
15.56	0.5277	12068	2.235	351.22	-1000000	-1000000	-1000000	-1000000	
15.58	0.5382	12085	2.251	350.93	-1000000	-1000000	-1000000	-1000000	
15.60	0.5488	12101	2.268	350.86	-1000000	-1000000	-1000000	-1000000	
15.62	0.5594	12117	2.284	350.97	-1000000	-1000000	-1000000	-1000000	
15.64	0.5702	12133	2.301	350.98	-1000000	-1000000	-1000000	-1000000	
15.66	0.5809	12149	2.317	350.90	-1000000	-1000000	-1000000	-1000000	
15.68	0.5918	12165	2.334	350.89	-1000000	-1000000	-1000000	-1000000	
15.70	0.6026	12180	2.351	351.15	-1000000	-1000000	-1000000	-1000000	
15.72	0.6134	12194	2.368	351.41	-1000000	-1000000	-1000000	-1000000	
15.74	0.6242	12209	2.385	351.20	-1000000	-1000000	-1000000	-1000000	
15.76	0.6350	12223	2.402	350.72	-1000000	-1000000	-1000000	-1000000	
15.78	0.6459	12237	2.420	350.75	-1000000	-1000000	-1000000	-1000000	
15.80	0.6568	12251	2.437	350.84	-1000000	-1000000	-1000000	-1000000	
15.82	0.6676	12265	2.455	350.82	-1000000	-1000000	-1000000	-1000000	
15.84	0.6785	12278	2.473	350.72	-1000000	-1000000	-1000000	-1000000	
15.86	0.6892	12292	2.490	351.03	-1000000	-1000000	-1000000	-1000000	
15.88	0.7000	12305	2.508	351.20	-1000000	-1000000	-1000000	-1000000	
15.90	0.7108	12318	2.527	351.44	-1000000	-1000000	-1000000	-1000000	
15.92	0.7216	12331	2.545	351.56	-1000000	-1000000	-1000000	-1000000	
15.94	0.7323	12343	2.563	351.26	-1000000	-1000000	-1000000	-1000000	
15.96	0.7431	12355	2.582	351.10	-1000000	-1000000	-1000000	-1000000	
15.98	0.7539	12367	2.600	351.02	-1000000	-1000000	-1000000	-1000000	
16.00	0.7648	12379	2.619	351.02	-1000000	-1000000	-1000000	-1000000	
16.02	0.7757	12392	2.638	351.06	-1000000	-1000000	-1000000	-1000000	
16.04	0.7867	12405	2.657	351.12	-1000000	-1000000	-1000000	-1000000	
16.06	0.7977	12417	2.676	351.14	-1000000	-1000000	-1000000	-1000000	
16.08	0.8089	12430	2.695	351.14	-1000000	-1000000	-1000000	-1000000	
16.10	0.8203	12443	2.714	351.06	-1000000	-1000000	-1000000	-1000000	
16.12	0.8319	12456	2.733	350.77	-1000000	-1000000	-1000000	-1000000	
16.14	0.8436	12469	2.753	350.81	-1000000	-1000000	-1000000	-1000000	
16.16	0.8556	12483	2.773	351.06	-1000000	-1000000	-1000000	-1000000	
16.18	0.8676	12496	2.792	351.42	-1000000	-1000000	-1000000	-1000000	
16.20	0.8797	12509	2.813	351.40	-1000000	-1000000	-1000000	-1000000	
16.22	0.8920	12522	2.833	350.96	-1000000	-1000000	-1000000	-1000000	
16.24	0.9044	12534	2.853	351.00	-1000000	-1000000	-1000000	-1000000	
16.26	0.9171	12547	2.873	351.44	-1000000	-1000000	-1000000	-1000000	
16.28	0.9299	12558	2.893	351.99	-1000000	-1000000	-1000000	-1000000	
16.30	0.9429	12570	2.913	352.18	-1000000	-1000000	-1000000	-1000000	
16.32	0.9561	12583	2.934	352.10	-1000000	-1000000	-1000000	-1000000	
16.34	0.9694	12594	2.955	351.78	-1000000	-1000000	-1000000	-1000000	
16.36	0.9828	12606	2.976	351.49	-1000000	-1000000	-1000000	-1000000	
16.38	0.9963	12617	2.997	351.18	-1000000	-1000000	-1000000	-1000000	
16.40	1.010	12628	3.018	350.83	-1000000	-1000000	-1000000	-1000000	
16.42	1.024	12639	3.039	350.90	-1000000	-1000000	-1000000	-1000000	
16.44	1.038	12650	3.060	351.26	-1000000	-1000000	-1000000	-1000000	
16.46	1.052	12661	3.082	351.32	-1000000	-1000000	-1000000	-1000000	
16.48	1.066	12671	3.103	351.28	-1000000	-1000000	-1000000	-1000000	
16.50	1.081	12682	3.125	351.26	-1000000	-1000000	-1000000	-1000000	
16.52	1.095	12692	3.147	351.34	-1000000	-1000000	-1000000	-1000000	
16.54	1.109	12702	3.169	351.43	-1000000	-1000000	-1000000	-1000000	
16.56	1.124	12712	3.191	351.70	-1000000	-1000000	-1000000	-1000000	
16.58	1.139	12722	3.213	351.90	-1000000	-1000000	-1000000	-1000000	
16.60	1.154	12731	3.235	352.03	-1000000	-1000000	-1000000	-1000000	
16.62	1.169	12741	3.258	351.78	-1000000	-1000000	-1000000	-1000000	
16.64	1.184	12750	3.280	351.20	-1000000	-1000000	-1000000	-1000000	
16.66	1.199	12758	3.303	351.26	-1000000	-1000000	-1000000	-1000000	
16.68	1.214	12768	3.326	351.80	-1000000	-1000000	-1000000	-1000000	
16.70	1.230	12776	3.349	352.00	-1000000	-1000000	-1000000	-1000000	
16.72	1.245	12785	3.372	352.17	-1000000	-1000000	-1000000	-1000000	
16.74	1.260	12794	3.395	352.46	-1000000	-1000000	-1000000	-1000000	
16.76	1.276	12802	3.418	352.16	-1000000	-1000000	-1000000	-1000000	
16.78	1.292	12810	3.442	352.05	-1000000	-1000000	-1000000	-1000000	
16.80	1.307	12818	3.465	352.63	-1000000	-1000000	-1000000	-1000000	
16.82	1.323	12825	3.489	352.75	-1000000	-1000000	-1000000	-1000000	
16.84	1.339	12832	3.512	352.60	-1000000	-1000000	-1000000	-1000000	
16.86	1.355	12839	3.536	352.42	-1000000	-1000000	-1000000	-1000000	
16.88	1.371	12846	3.560	352.32	-1000000	-1000000	-1000000	-1000000	
16.90	1.388	12853	3.584	352.29	-1000000	-1000000	-1000000	-1000000	
16.92	1.404	12860	3.609	352.48	-1000000	-1000000	-1000000	-1000000	
16.94	1.420	12867	3.633	352.55	-1000000	-1000000	-1000000	-1000000	
16.96	1.437	12873	3.657	352.82	-1000000	-1000000	-1000000	-1000000	
16.98	1.453	12880	3.682	353.07	-1000000	-1000000	-1000000	-1000000	
17.00	1.470	12886	3.706	353.02	-1000000	-1000000	-1000000	-1000000	
17.02	1.487	12892	3.731	353.07	-1000000	-1000000	-1000000	-1000000	
17.04	1.504	12899	3.756	353.18	-1000000	-1000000	-1000000	-1000000	
17.06	1.521	12904	3.781	353.16	-1000000	-1000000	-1000000	-1000000	
17.08	1.538	12910	3.806	353.09	-1000000	-1000000	-1000000	-1000000	
17.10	1.556	12915	3.831	353.22	-1000000	-1000000	-1000000	-1000000	
17.12	1.574	12921	3.857	353.45	-1000000	-1000000	-1000000	-1000000	
17.14	1.591	12927	3.883	353.54	-1000000	-1000000	-1000000	-1000000	
17.16	1.610	12932	3.908	353.48	-1000000	-1000000	-1000000	-1000000	
17.18	1.628	12938	3.934	353.35	-1000000	-1000000	-1000000	-1000000	
17.20	1.647	12943	3.960	353.47	-1000000	-1000000	-1000000	-1000000	
17.22	1.666	12948	3.986	353.63	-1000000	-1000000	-1000000	-1000000	
17.24	1.685	12953	4.012	353.78	-1000000	-1000000	-1000000	-1000000	
17.26	1.704	12958	4.038	353.96	-1000000	-1000000	-1000000	-1000000	
17.28	1.724	12962	4.065	354.12	-1000000	-1000000	-1000000	-1000000	
17.30	1.744	12967	4.091	354.16	-1000000	-1000000	-1000000	-1000000	
17.32	1.764	12971	4.118	354.02	-1000000	-1000000	-1000000	-1000000	
17.34	1.784	12974	4.144	353.93	-1000000	-1000000	-1000000	-1000000	
17.36	1.805	12978	4.171	354.05	-1000000	-1000000	-1000000	-1000000	
17.38	1.826	12981	4.198	354.39	-1000000	-1000000	-1000000	-1000000	
17.40	1.847	12984	4.225	354.37	-1000000	-1000000	-1000000	-1000000	
17.42	1.869	12987	4.253	354.39	-1000000	-1000000	-1000000	-1000000	
17.44	1.891	12990	4.280	354.56	-1000000	-1000000	-1000000	-1000000	
17.46	1.913	12992	4.308	354.80	-1000000	-1000000	-1000000	-1000000	
17.48	1.935	12994	4.335	354.96	-1000000	-1000000	-1000000	-1000000	
17.50	1.957	12996	4.363	355.21	-1000000	-1000000	-1000000	-1000000	
17.52	1.980	12998	4.390	355.27	-1000000	-1000000	-1000000	-1000000	
17.54	2.003	13000	4.418	355.25	-1000000	-1000000	-1000000	-1000000	
17.56	2.026	13000	4.446	355.47	-1000000	-1000000	-1000000	-1000000	
17.58	2.050	13001	4.474	355.71	-1000000	-1000000	-1000000	-1000000	
17.60	2.073	13001	4.503	355.76	-1000000	-1000000	-1000000	-1000000	
17.62	2.097	13002	4.531	356.00	-1000000	-1000000	-1000000	-1000000	
17.64	2.122	13002	4.560	356.08	-1000000	-1000000	-1000000	-1000000	
17.66	2.146	13002	4.589	356.10	-1000000	-1000000	-1000000	-1000000	
17.68	2.171	13002	4.617	356.54	-1000000	-1000000	-1000000	-1000000	
17.70	2.196	13001	4.646	356.89	-1000000	-1000000	-1000000	-1000000	
17.72	2.221	13000	4.675	357.20	-1000000	-1000000	-1000000	-1000000	
17.74	2.247	12998	4.704	357.25	-1000000	-1000000	-1000000	-1000000	
17.76	2.273	12996	4.734	357.00	-1000000	-1000000	-1000000	-1000000	
17.78	2.299	12994	4.763	357.16	-1000000	-1000000	-1000000	-1000000	
17.80	2.325	12991	4.792	357.38	-1000000	-1000000	-1000000	-1000000	
17.82	2.352	12988	4.822	357.64	-1000000	-1000000	-1000000	-1000000	
17.84	2.379	12985	4.852	357.66	-1000000	-1000000	-1000000	-1000000	
17.86	2.406	12981	4.882	357.87	-1000000	-1000000	-1000000	-1000000	
17.88	2.434	12978	4.912	358.39	-1000000	-1000000	-1000000	-1000000	
17.90	2.461	12973	4.942	358.73	-1000000	-1000000	-1000000	-1000000	
17.92	2.489	12968	4.972	359.02	-1000000	-1000000	-1000000	-1000000	
17.94	2.518	12961	5.002	359.18	-1000000	-1000000	-1000000	-1000000	
17.96	2.546	12955	5.033	359.49	-1000000	-1000000	-1000000	-1000000	
17.98	2.575	12948	5.063	359.63	-1000000	-1000000	-1000000	-1000000	
18.00	2.604	12940	5.094	359.91	-1000000	-1000000	-1000000	-1000000	
18.02	2.634	12932	5.125	360.18	-1000000	-1000000	-1000000	-1000000	
18.04	2.663	12923	5.156	360.42	-1000000	-1000000	-1000000	-1000000	
18.06	2.693	12914	5.187	360.78	-1000000	-1000000	-1000000	-1000000	
18.08	2.723	12903	5.218	361.22	-1000000	-1000000	-1000000	-1000000	
18.10	2.754	12892	5.249	361.50	-1000000	-1000000	-1000000	-1000000	
18.12	2.784	12879	5.281	361.79	-1000000	-1000000	-1000000	-1000000	
18.14	2.815	12866	5.312	362.01	-1000000	-1000000	-1000000	-1000000	
18.16	2.847	12852	5.344	362.43	-1000000	-1000000	-1000000	-1000000	
18.18	2.878	12837	5.375	363.09	-1000000	-1000000	-1000000	-1000000	
18.20	2.910	12821	5.407	363.61	-1000000	-1000000	-1000000	-1000000	
18.22	2.942	12804	5.439	363.85	-1000000	-1000000	-1000000	-1000000	
18.24	2.974	12786	5.472	363.99	-1000000	-1000000	-1000000	-1000000	
18.26	3.006	12767	5.504	364.46	-1000000	-1000000	-1000000	-1000000	
18.28	3.039	12747	5.536	365.04	-1000000	-1000000	-1000000	-1000000	
18.30	3.072	12725	5.568	365.55	-1000000	-1000000	-1000000	-1000000	
18.32	3.105	12701	5.601	366.27	-1000000	-1000000	-1000000	-1000000	
18.34	3.139	12676	5.634	366.96	-1000000	-1000000	-1000000	-1000000	
18.36	3.172	12649	5.667	367.42	-1000000	-1000000	-1000000	-1000000	
18.38	3.207	12622	5.700	367.79	-1000000	-1000000	-1000000	-1000000	
18.40	3.241	12592	5.733	368.22	-1000000	-1000000	-1000000	-1000000	
18.42	3.275	12560	5.766	368.88	-1000000	-1000000	-1000000	-1000000	
18.44	3.310	12527	5.799	369.75	-1000000	-1000000	-1000000	-1000000	
18.46	3.345	12491	5.833	370.32	-1000000	-1000000	-1000000	-1000000	
18.48	3.380	12453	5.866	370.66	-1000000	-1000000	-1000000	-1000000	
18.50	3.416	12413	5.900	371.27	-1000000	-1000000	-1000000	-1000000	
18.52	3.452	12370	5.934	372.12	-1000000	-1000000	-1000000	-1000000	
18.54	3.488	12325	5.968	372.79	-1000000	-1000000	-1000000	-1000000	
18.56	3.524	12276	6.002	373.32	-1000000	-1000000	-1000000	-1000000	
18.58	3.561	12225	6.036	374.10	-1000000	-1000000	-1000000	-1000000	
18.60	3.598	12170	6.070	374.83	-1000000	-1000000	-1000000	-1000000	
18.62	3.635	12111	6.105	375.58	-1000000	-1000000	-1000000	-1000000	
18.64	3.673	12049	6.139	376.30	-1000000	-1000000	-1000000	-1000000	
18.66	3.711	11984	6.174	377.12	-1000000	-1000000	-1000000	-1000000	
18.68	3.749	11914	6.209	377.88	-1000000	-1000000	-1000000	-1000000	
18.70	3.787	11840	6.244	378.77	-1000000	-1000000	-1000000	-1000000	
18.72	3.826	11761	6.279	379.57	-1000000	-1000000	-1000000	-1000000	
18.74	3.866	11678	6.314	380.24	-1000000	-1000000	-1000000	-1000000	
18.76	3.905	11588	6.349	380.89	-1000000	-1000000	-1000000	-1000000	
18.78	3.946	11492	6.384	381.56	-1000000	-1000000	-1000000	-1000000	
18.80	3.986	11388	6.420	382.29	-1000000	-1000000	-1000000	-1000000	
18.82	4.027	11276	6.455	383.03	-1000000	-1000000	-1000000	-1000000	
18.84	4.069	11156	6.491	383.84	-1000000	-1000000	-1000000	-1000000	
18.86	4.111	11025	6.527	384.82	-1000000	-1000000	-1000000	-1000000	
18.88	4.149	10883	6.563	385.59	-1000000	-1000000	-1000000	-1000000	
18.90	4.177	10728	6.599	386.06	-1000000	-1000000	-1000000	-1000000	
18.92	4.195	10564	6.634	386.17	-1000000	-1000000	-1000000	-1000000	
18.94	4.205	10398	6.665	385.92	-1000000	-1000000	-1000000	-1000000	
18.96	4.211	10239	6.688	385.36	-1000000	-1000000	-1000000	-1000000	
18.98	4.214	10097	6.701	384.79	-1000000	-1000000	-1000000	-1000000	
19.00	4.217	9979.3	6.707	384.20	-1000000	-1000000	-1000000	-1000000	
19.02	4.219	9886.7	6.710	383.56	-1000000	-1000000	-1000000	-1000000	
19.04	4.220	9817.2	6.712	383.00	-1000000	-1000000	-1000000	-1000000	
19.06	4.221	9765.6	6.712	382.68	-1000000	-1000000	-1000000	-1000000	
19.08	4.222	9725.7	6.713	382.30	-1000000	-1000000	-1000000	-1000000	
19.10	4.223	9693.2	6.713	381.82	-1000000	-1000000	-1000000	-1000000	
19.12	4.224	9665.9	6.713	381.35	-1000000	-1000000	-1000000	-1000000	
19.14	4.224	9643.3	6.713	380.93	-1000000	-1000000	-1000000	-1000000	
19.16	4.225	9624.6	6.713	380.40	-1000000	-1000000	-1000000	-1000000	
19.18	4.225	9608.9	6.713	380.11	-1000000	-1000000	-1000000	-1000000	
19.20	4.225	9595.4	6.713	379.84	-1000000	-1000000	-1000000	-1000000	
19.22	4.226	9583.8	6.713	379.35	-1000000	-1000000	-1000000	-1000000	
19.24	4.226	9573.4	6.713	378.99	-1000000	-1000000	-1000000	-1000000	
19.26	4.226	9564.1	6.713	378.67	-1000000	-1000000	-1000000	-1000000	
19.28	4.227	9555.7	6.713	378.41	-1000000	-1000000	-1000000	-1000000	
19.30	4.227	9548.1	6.713	378.23	-1000000	-1000000	-1000000	-1000000	
19.32	4.227	9541.5	6.713	377.90	-1000000	-1000000	-1000000	-1000000	
19.34	4.227	9535.6	6.713	377.61	-1000000	-1000000	-1000000	-1000000	
19.36	4.228	9530.2	6.713	377.15	-1000000	-1000000	-1000000	-1000000	
19.38	4.228	9525.4	6.713	376.83	-1000000	-1000000	-1000000	-1000000	
19.40	4.228	9521.1	6.713	376.66	-1000000	-1000000	-1000000	-1000000	
19.42	4.228	9517.3	6.713	376.41	-1000000	-1000000	-1000000	-1000000	
19.44	4.228	9513.2	6.713	376.15	-1000000	-1000000	-1000000	-1000000	
19.46	4.229	9509.6	6.713	376.04	-1000000	-1000000	-1000000	-1000000	
19.48	4.229	9506.7	6.713	375.76	-1000000	-1000000	-1000000	-1000000	
19.50	4.229	9503.9	6.713	375.33	-1000000	-1000000	-1000000	-1000000	
19.52	4.229	9501.2	6.713	375.01	-1000000	-1000000	-1000000	-1000000	
19.54	4.229	9498.7	6.713	374.84	-1000000	-1000000	-1000000	-1000000	
19.56	4.229	9496.7	6.713	374.68	-1000000	-1000000	-1000000	-1000000	
19.58	4.229	9494.8	6.713	374.39	-1000000	-1000000	-1000000	-1000000	
19.60	4.230	9492.7	6.713	374.10	-1000000	-1000000	-1000000	-1000000	
19.62	4.230	9490.9	6.713	373.81	-1000000	-1000000	-1000000	-1000000	
19.64	4.230	9489.1	6.713	373.70	-1000000	-1000000	-1000000	-1000000	
19.66	4.230	9487.3	6.713	373.52	-1000000	-1000000	-1000000	-1000000	
19.68	4.230	9485.7	6.713	373.14	-1000000	-1000000	-1000000	-1000000	
19.70	4.230	9484.2	6.713	372.84	-1000000	-1000000	-1000000	-1000000	
19.72	4.230	9483.0	6.713	372.65	-1000000	-1000000	-1000000	-1000000	
19.74	4.230	9481.8	6.713	372.45	-1000000	-1000000	-1000000	-1000000	
19.76	4.230	9480.8	6.713	372.35	-1000000	-1000000	-1000000	-1000000	
19.78	4.230	9479.7	6.713	371.98	-1000000	-1000000	-1000000	-1000000	
19.80	4.230	9478.8	6.713	371.70	-1000000	-1000000	-1000000	-1000000	
19.82	4.230	9478.2	6.713	371.59	-1000000	-1000000	-1000000	-1000000	
19.84	4.230	9477.4	6.713	371.55	-1000000	-1000000	-1000000	-1000000	
19.86	4.231	9476.6	6.713	371.48	-1000000	-1000000	-1000000	-1000000	
19.88	4.231	9475.8	6.713	371.38	-1000000	-1000000	-1000000	-1000000	
19.90	4.231	9475.1	6.713	371.17	-1000000	-1000000	-1000000	-1000000	
19.92	4.231	9474.2	6.713	370.88	-1000000	-1000000	-1000000	-1000000	
19.94	4.231	9473.5	6.713	370.50	-1000000	-1000000	-1000000	-1000000	
19.96	4.231	9473.3	6.713	370.42	-1000000	-1000000	-1000000	-1000000	
19.98	4.231	9472.8	6.712	370.30	-1000000	-1000000	-1000000	-1000000	
20.00	4.231	9472.3	6.712	370.07	-1000000	-1000000	-1000000	-1000000	
20.02	4.231	9472.1	6.712	369.77	-1000000	-1000000	-1000000	-1000000	
20.04	4.231	9471.8	6.712	369.68	-1000000	-1000000	-1000000	-1000000	
20.06	4.231	9470.9	6.712	369.46	-1000000	-1000000	-1000000	-1000000	
20.08	4.231	9470.3	6.712	369.25	-1000000	-1000000	-1000000	-1000000	
20.10	4.231	9470.1	6.712	369.09	-1000000	-1000000	-1000000	-1000000	
20.12	4.231	9469.5	6.712	368.86	-1000000	-1000000	-1000000	-1000000	
20.14	4.231	9468.9	6.712	368.53	-1000000	-1000000	-1000000	-1000000	
20.16	4.231	9468.4	6.712	368.20	-1000000	-1000000	-1000000	-1000000	
20.18	4.231	9467.5	6.712	368.28	-1000000	-1000000	-1000000	-1000000	
20.20	4.231	9466.8	6.712	368.39	-1000000	-1000000	-1000000	-1000000	
20.22	4.231	9466.3	6.711	368.11	-1000000	-1000000	-1000000	-1000000	
20.24	4.231	9465.6	6.711	367.63	-1000000	-1000000	-1000000	-1000000	
20.26	4.231	9465.1	6.711	367.28	-1000000	-1000000	-1000000	-1000000	
20.28	4.231	9464.1	6.711	367.13	-1000000	-1000000	-1000000	-1000000	
20.30	4.231	9462.8	6.711	367.50	-1000000	-1000000	-1000000	-1000000	
20.32	4.231	9461.4	6.711	367.73	-1000000	-1000000	-1000000	-1000000	
20.34	4.231	9459.9	6.710	367.54	-1000000	-1000000	-1000000	-1000000	
20.36	4.231	9458.2	6.710	367.08	-1000000	-1000000	-1000000	-1000000	
20.38	4.231	9456.5	6.710	366.78	-1000000	-1000000	-1000000	-1000000	
20.40	4.231	9454.6	6.710	366.71	-1000000	-1000000	-1000000	-1000000	
20.42	4.231	9452.6	6.710	366.63	-1000000	-1000000	-1000000	-1000000	
20.44	4.231	9450.3	6.709	366.44	-1000000	-1000000	-1000000	-1000000	
20.46	4.231	9447.9	6.709	366.33	-1000000	-1000000	-1000000	-1000000	
20.48	4.231	9444.9	6.709	366.34	-1000000	-1000000	-1000000	-1000000	
20.50	4.231	9441.7	6.709	366.42	-1000000	-1000000	-1000000	-1000000	
20.52	4.231	9438.6	6.708	366.22	-1000000	-1000000	-1000000	-1000000	
20.54	4.231	9435.9	6.708	365.98	-1000000	-1000000	-1000000	-1000000	
20.56	4.231	9433.0	6.708	365.61	-1000000	-1000000	-1000000	-1000000	
20.58	4.231	9429.8	6.708	365.21	-1000000	-1000000	-1000000	-1000000	
20.60	4.231	9426.6	6.708	365.02	-1000000	-1000000	-1000000	-1000000	
20.62	4.231	9423.1	6.707	365.05	-1000000	-1000000	-1000000	-1000000	
20.64	4.231	9418.9	6.707	364.99	-1000000	-1000000	-1000000	-1000000	
20.66	4.231	9414.8	6.707	364.88	-1000000	-1000000	-1000000	-1000000	
20.68	4.231	9411.0	6.706	364.79	-1000000	-1000000	-1000000	-1000000	
20.70	4.231	9407.1	6.706	364.56	-1000000	-1000000	-1000000	-1000000	
20.72	4.231	9402.9	6.706	364.26	-1000000	-1000000	-1000000	-1000000	
20.74	4.231	9398.5	6.705	364.11	-1000000	-1000000	-1000000	-1000000	
20.76	4.231	9393.6	6.705	364.00	-1000000	-1000000	-1000000	-1000000	
20.78	4.231	9388.7	6.705	363.90	-1000000	-1000000	-1000000	-1000000	
20.80	4.231	9383.5	6.704	364.12	-1000000	-1000000	-1000000	-1000000	
20.82	4.231	9378.4	6.704	364.18	-1000000	-1000000	-1000000	-1000000	
20.84	4.231	9373.3	6.704	364.01	-1000000	-1000000	-1000000	-1000000	
20.86	4.231	9368.0	6.703	363.87	-1000000	-1000000	-1000000	-1000000	
20.88	4.231	9362.4	6.703	363.84	-1000000	-1000000	-1000000	-1000000	
20.90	4.231	9356.7	6.703	363.68	-1000000	-1000000	-1000000	-1000000	
20.92	4.230	9350.8	6.702	363.53	-1000000	-1000000	-1000000	-1000000	
20.94	4.230	9344.7	6.702	363.69	-1000000	-1000000	-1000000	-1000000	
20.96	4.230	9338.9	6.702	363.61	-1000000	-1000000	-1000000	-1000000	
20.98	4.230	9332.8	6.701	363.43	-1000000	-1000000	-1000000	-1000000	
21.00	4.230	9326.3	6.701	363.34	-1000000	-1000000	-1000000	-1000000	
21.02	4.230	9319.5	6.700	363.26	-1000000	-1000000	-1000000	-1000000	
21.04	4.230	9312.8	6.700	363.22	-1000000	-1000000	-1000000	-1000000	
21.06	4.230	9306.0	6.700	363.08	-1000000	-1000000	-1000000	-1000000	
21.08	4.230	9298.7	6.699	362.70	-1000000	-1000000	-1000000	-1000000	
21.10	4.230	9291.5	6.699	362.41	-1000000	-1000000	-1000000	-1000000	
21.12	4.230	9284.0	6.698	362.39	-1000000	-1000000	-1000000	-1000000	
21.14	4.230	9276.3	6.698	362.51	-1000000	-1000000	-1000000	-1000000	
21.16	4.229	9268.7	6.697	362.48	-1000000	-1000000	-1000000	-1000000	
21.18	4.229	9261.0	6.697	362.21	-1000000	-1000000	-1000000	-1000000	
21.20	4.229	9252.9	6.696	362.01	-1000000	-1000000	-1000000	-1000000	
21.22	4.229	9244.6	6.696	362.06	-1000000	-1000000	-1000000	-1000000	
21.24	4.229	9235.7	6.695	362.17	-1000000	-1000000	-1000000	-1000000	
21.26	4.229	9226.9	6.695	361.94	-1000000	-1000000	-1000000	-1000000	
21.28	4.229	9218.7	6.694	361.72	-1000000	-1000000	-1000000	-1000000	
21.30	4.229	9210.2	6.694	361.59	-1000000	-1000000	-1000000	-1000000	
21.32	4.229	9201.1	6.694	361.39	-1000000	-1000000	-1000000	-1000000	
21.34	4.228	9192.1	6.693	361.18	-1000000	-1000000	-1000000	-1000000	
21.36	4.228	9183.1	6.692	361.03	-1000000	-1000000	-1000000	-1000000	
21.38	4.228	9173.8	6.692	360.90	-1000000	-1000000	-1000000	-1000000	
21.40	4.228	9164.5	6.691	360.83	-1000000	-1000000	-1000000	-1000000	
21.42	4.228	9155.1	6.691	360.91	-1000000	-1000000	-1000000	-1000000	
21.44	4.228	9145.4	6.690	360.82	-1000000	-1000000	-1000000	-1000000	
21.46	4.228	9135.4	6.690	360.71	-1000000	-1000000	-1000000	-1000000	
21.48	4.228	9125.2	6.689	360.60	-1000000	-1000000	-1000000	-1000000	
21.50	4.228	9115.0	6.689	360.43	-1000000	-1000000	-1000000	-1000000	
21.52	4.227	9104.9	6.688	360.16	-1000000	-1000000	-1000000	-1000000	
21.54	4.227	9094.6	6.688	360.10	-1000000	-1000000	-1000000	-1000000	
21.56	4.227	9083.9	6.687	360.18	-1000000	-1000000	-1000000	-1000000	
21.58	4.227	9073.0	6.686	359.98	-1000000	-1000000	-1000000	-1000000	
21.60	4.227	9062.0	6.686	359.80	-1000000	-1000000	-1000000	-1000000	
21.62	4.227	9050.8	6.685	359.72	-1000000	-1000000	-1000000	-1000000	
21.64	4.227	9039.5	6.684	359.59	-1000000	-1000000	-1000000	-1000000	
21.66	4.227	9028.1	6.684	359.52	-1000000	-1000000	-1000000	-1000000	
21.68	4.226	9016.6	6.683	359.28	-1000000	-1000000	-1000000	-1000000	
21.70	4.226	9005.2	6.683	359.20	-1000000	-1000000	-1000000	-1000000	
21.72	4.226	8993.9	6.682	359.32	-1000000	-1000000	-1000000	-1000000	
21.74	4.226	8982.2	6.681	359.20	-1000000	-1000000	-1000000	-1000000	
21.76	4.226	8970.2	6.681	358.93	-1000000	-1000000	-1000000	-1000000	
21.78	4.226	8958.0	6.680	358.88	-1000000	-1000000	-1000000	-1000000	
21.80	4.226	8945.8	6.679	358.83	-1000000	-1000000	-1000000	-1000000	
21.82	4.225	8933.5	6.679	358.73	-1000000	-1000000	-1000000	-1000000	
21.84	4.225	8920.7	6.678	358.57	-1000000	-1000000	-1000000	-1000000	
21.86	4.225	8907.8	6.677	358.54	-1000000	-1000000	-1000000	-1000000	
21.88	4.225	8895.0	6.676	358.50	-1000000	-1000000	-1000000	-1000000	
21.90	4.225	8882.1	6.676	358.17	-1000000	-1000000	-1000000	-1000000	
21.92	4.225	8868.7	6.675	357.94	-1000000	-1000000	-1000000	-1000000	
21.94	4.225	8855.2	6.675	357.76	-1000000	-1000000	-1000000	-1000000	
21.96	4.224	8841.1	6.674	357.89	-1000000	-1000000	-1000000	-1000000	
21.98	4.224	8826.8	6.673	357.98	-1000000	-1000000	-1000000	-1000000	
22.00	4.224	8812.5	6.672	357.76	-1000000	-1000000	-1000000	-1000000	
22.02	4.224	8798.1	6.672	357.41	-1000000	-1000000	-1000000	-1000000	
22.04	4.224	8784.1	6.671	357.41	-1000000	-1000000	-1000000	-1000000	
22.06	4.223	8770.0	6.670	357.67	-1000000	-1000000	-1000000	-1000000	
22.08	4.223	8755.7	6.669	357.43	-1000000	-1000000	-1000000	-1000000	
22.10	4.223	8741.3	6.668	356.97	-1000000	-1000000	-1000000	-1000000	
22.12	4.223	8726.7	6.668	356.80	-1000000	-1000000	-1000000	-1000000	
22.14	4.223	8711.8	6.667	357.00	-1000000	-1000000	-1000000	-1000000	
22.16	4.223	8697.4	6.666	357.28	-1000000	-1000000	-1000000	-1000000	
22.18	4.222	8683.2	6.665	357.11	-1000000	-1000000	-1000000	-1000000	
22.20	4.222	8668.7	6.665	356.61	-1000000	-1000000	-1000000	-1000000	
22.22	4.222	8654.0	6.664	356.42	-1000000	-1000000	-1000000	-1000000	
22.24	4.222	8638.8	6.663	356.66	-1000000	-1000000	-1000000	-1000000	
22.26	4.222	8623.2	6.662	356.81	-1000000	-1000000	-1000000	-1000000	
22.28	4.222	8607.5	6.662	356.76	-1000000	-1000000	-1000000	-1000000	
22.30	4.222	8592.1	6.661	356.53	-1000000	-1000000	-1000000	-1000000	
22.32	4.221	8576.5	6.660	356.18	-1000000	-1000000	-1000000	-1000000	
22.34	4.221	8560.7	6.659	356.05	-1000000	-1000000	-1000000	-1000000	
22.36	4.221	8544.8	6.658	355.90	-1000000	-1000000	-1000000	-1000000	
22.38	4.221	8529.0	6.657	355.85	-1000000	-1000000	-1000000	-1000000	
22.40	4.221	8513.0	6.656	355.75	-1000000	-1000000	-1000000	-1000000	
22.42	4.220	8497.2	6.655	355.69	-1000000	-1000000	-1000000	-1000000	
22.44	4.220	8481.1	6.655	355.69	-1000000	-1000000	-1000000	-1000000	
22.46	4.220	8464.7	6.654	355.79	-1000000	-1000000	-1000000	-1000000	
22.48	4.220	8447.9	6.653	355.66	-1000000	-1000000	-1000000	-1000000	
22.50	4.220	8430.8	6.652	355.81	-1000000	-1000000	-1000000	-1000000	
22.52	4.219	8413.9	6.651	355.66	-1000000	-1000000	-1000000	-1000000	
22.54	4.219	8397.3	6.650	355.31	-1000000	-1000000	-1000000	-1000000	
22.56	4.219	8380.6	6.649	355.48	-1000000	-1000000	-1000000	-1000000	
22.58	4.219	8363.2	6.648	355.60	-1000000	-1000000	-1000000	-1000000	
22.60	4.219	8345.6	6.647	355.30	-1000000	-1000000	-1000000	-1000000	
22.62	4.219	8328.6	6.646	355.19	-1000000	-1000000	-1000000	-1000000	
22.64	4.218	8311.7	6.645	355.21	-1000000	-1000000	-1000000	-1000000	
22.66	4.218	8294.2	6.644	355.06	-1000000	-1000000	-1000000	-1000000	
22.68	4.218	8276.6	6.644	354.98	-1000000	-1000000	-1000000	-1000000	
22.70	4.218	8259.1	6.643	355.13	-1000000	-1000000	-1000000	-1000000	
22.72	4.218	8241.5	6.642	354.93	-1000000	-1000000	-1000000	-1000000	
22.74	4.217	8223.5	6.641	354.58	-1000000	-1000000	-1000000	-1000000	
22.76	4.217	8205.4	6.640	354.44	-1000000	-1000000	-1000000	-1000000	
22.78	4.217	8187.1	6.639	354.22	-1000000	-1000000	-1000000	-1000000	
22.80	4.217	8168.6	6.638	353.96	-1000000	-1000000	-1000000	-1000000	
22.82	4.217	8149.9	6.637	353.90	-1000000	-1000000	-1000000	-1000000	
22.84	4.216	8131.3	6.636	353.82	-1000000	-1000000	-1000000	-1000000	
22.86	4.216	8112.4	6.635	353.71	-1000000	-1000000	-1000000	-1000000	
22.88	4.216	8093.2	6.634	353.78	-1000000	-1000000	-1000000	-1000000	
22.90	4.216	8074.2	6.632	353.81	-1000000	-1000000	-1000000	-1000000	
22.92	4.216	8054.8	6.631	353.75	-1000000	-1000000	-1000000	-1000000	
22.94	4.215	8034.8	6.630	353.43	-1000000	-1000000	-1000000	-1000000	
22.96	4.215	8014.7	6.629	353.18	-1000000	-1000000	-1000000	-1000000	
22.98	4.215	7994.9	6.628	353.40	-1000000	-1000000	-1000000	-1000000	
23.00	4.215	7975.4	6.627	353.64	-1000000	-1000000	-1000000	-1000000	
23.02	4.214	7955.8	6.626	353.52	-1000000	-1000000	-1000000	-1000000	
23.04	4.214	7935.9	6.625	353.17	-1000000	-1000000	-1000000	-1000000	
23.06	4.214	7916.0	6.624	353.08	-1000000	-1000000	-1000000	-1000000	
23.08	4.214	7895.7	6.623	353.33	-1000000	-1000000	-1000000	-1000000	
23.10	4.214	7874.7	6.622	353.47	-1000000	-1000000	-1000000	-1000000	
23.12	4.213	7853.8	6.621	353.25	-1000000	-1000000	-1000000	-1000000	
23.14	4.213	7833.5	6.620	353.02	-1000000	-1000000	-1000000	-1000000	
23.16	4.213	7812.9	6.618	352.85	-1000000	-1000000	-1000000	-1000000	
23.18	4.213	7792.1	6.617	352.77	-1000000	-1000000	-1000000	-1000000	
23.20	4.212	7771.7	6.616	352.39	-1000000	-1000000	-1000000	-1000000	
23.22	4.212	7750.9	6.615	352.20	-1000000	-1000000	-1000000	-1000000	
23.24	4.212	7729.9	6.614	352.44	-1000000	-1000000	-1000000	-1000000	
23.26	4.212	7709.3	6.613	352.47	-1000000	-1000000	-1000000	-1000000	
23.28	4.211	7688.6	6.612	352.20	-1000000	-1000000	-1000000	-1000000	
23.30	4.211	7667.3	6.610	352.08	-1000000	-1000000	-1000000	-1000000	
23.32	4.211	7645.8	6.609	352.06	-1000000	-1000000	-1000000	-1000000	
23.34	4.211	7624.3	6.608	351.91	-1000000	-1000000	-1000000	-1000000	
23.36	4.211	7602.6	6.607	351.74	-1000000	-1000000	-1000000	-1000000	
23.38	4.210	7580.9	6.606	351.27	-1000000	-1000000	-1000000	-1000000	
23.40	4.210	7559.1	6.604	351.10	-1000000	-1000000	-1000000	-1000000	
23.42	4.210	7537.1	6.603	351.32	-1000000	-1000000	-1000000	-1000000	
23.44	4.210	7515.3	6.602	351.47	-1000000	-1000000	-1000000	-1000000	
23.46	4.209	7493.5	6.601	351.83	-1000000	-1000000	-1000000	-1000000	
23.48	4.209	7471.6	6.600	351.99	-1000000	-1000000	-1000000	-1000000	
23.50	4.209	7449.5	6.598	351.65	-1000000	-1000000	-1000000	-1000000	
23.52	4.209	7427.2	6.597	351.37	-1000000	-1000000	-1000000	-1000000	
23.54	4.208	7404.3	6.596	351.27	-1000000	-1000000	-1000000	-1000000	
23.56	4.208	7381.3	6.595	351.03	-1000000	-1000000	-1000000	-1000000	
23.58	4.208	7358.5	6.593	350.94	-1000000	-1000000	-1000000	-1000000	
23.60	4.208	7335.4	6.592	351.03	-1000000	-1000000	-1000000	-1000000	
23.62	4.207	7312.0	6.591	351.05	-1000000	-1000000	-1000000	-1000000	
23.64	4.207	7288.6	6.590	350.93	-1000000	-1000000	-1000000	-1000000	
23.66	4.207	7265.1	6.588	350.85	-1000000	-1000000	-1000000	-1000000	
23.68	4.207	7241.2	6.587	350.72	-1000000	-1000000	-1000000	-1000000	
23.70	4.206	7217.1	6.585	350.36	-1000000	-1000000	-1000000	-1000000	
23.72	4.206	7192.9	6.584	350.33	-1000000	-1000000	-1000000	-1000000	
23.74	4.206	7168.6	6.583	350.56	-1000000	-1000000	-1000000	-1000000	
23.76	4.206	7144.6	6.582	350.23	-1000000	-1000000	-1000000	-1000000	
23.78	4.205	7121.0	6.581	349.66	-1000000	-1000000	-1000000	-1000000	
23.80	4.205	7097.3	6.579	349.45	-1000000	-1000000	-1000000	-1000000	
23.82	4.205	7072.9	6.578	349.53	-1000000	-1000000	-1000000	-1000000	
23.84	4.204	7048.7	6.577	349.77	-1000000	-1000000	-1000000	-1000000	
23.86	4.204	7024.3	6.575	349.68	-1000000	-1000000	-1000000	-1000000	
23.88	4.204	6999.4	6.574	349.49	-1000000	-1000000	-1000000	-1000000	
23.90	4.204	6974.3	6.572	349.34	-1000000	-1000000	-1000000	-1000000	
23.92	4.204	6949.2	6.571	349.20	-1000000	-1000000	-1000000	-1000000	
23.94	4.203	6924.1	6.569	349.12	-1000000	-1000000	-1000000	-1000000	
23.96	4.203	6898.7	6.568	349.19	-1000000	-1000000	-1000000	-1000000	
23.98	4.203	6873.0	6.567	349.12	-1000000	-1000000	-1000000	-1000000	
24.00	4.202	6847.0	6.565	349.45	-1000000	-1000000	-1000000	-1000000	
24.02	4.202	6820.4	6.564	349.52	-1000000	-1000000	-1000000	-1000000	
24.04	4.202	6793.5	6.563	349.35	-1000000	-1000000	-1000000	-1000000	
24.06	4.202	6766.8	6.561	349.29	-1000000	-1000000	-1000000	-1000000	
24.08	4.201	6739.4	6.560	349.59	-1000000	-1000000	-1000000	-1000000	
24.10	4.201	6710.9	6.559	349.56	-1000000	-1000000	-1000000	-1000000	
24.12	4.201	6681.4	6.557	349.57	-1000000	-1000000	-1000000	-1000000	
24.14	4.201	6650.7	6.556	349.63	-1000000	-1000000	-1000000	-1000000	
24.16	4.200	6618.1	6.554	349.79	-1000000	-1000000	-1000000	-1000000	
24.18	4.200	6584.2	6.553	349.87	-1000000	-1000000	-1000000	-1000000	
24.20	4.200	6550.0	6.551	350.21	-1000000	-1000000	-1000000	-1000000	
24.22	4.200	6516.6	6.550	350.45	-1000000	-1000000	-1000000	-1000000	
24.24	4.200	6484.1	6.548	350.47	-1000000	-1000000	-1000000	-1000000	
24.26	4.199	6452.8	6.547	350.48	-1000000	-1000000	-1000000	-1000000	
24.28	4.199	6422.9	6.545	350.57	-1000000	-1000000	-1000000	-1000000	
24.30	4.199	6393.8	6.544	350.21	-1000000	-1000000	-1000000	-1000000	
24.32	4.198	6365.0	6.542	349.98	-1000000	-1000000	-1000000	-1000000	
24.34	4.198	6336.4	6.541	350.28	-1000000	-1000000	-1000000	-1000000	
24.36	4.198	6308.0	6.539	350.51	-1000000	-1000000	-1000000	-1000000	
24.38	4.197	6279.7	6.538	350.38	-1000000	-1000000	-1000000	-1000000	
24.40	4.197	6251.5	6.536	350.37	-1000000	-1000000	-1000000	-1000000	
24.42	4.197	6223.1	6.535	350.38	-1000000	-1000000	-1000000	-1000000	
24.44	4.197	6194.6	6.533	350.29	-1000000	-1000000	-1000000	-1000000	
24.46	4.196	6166.1	6.532	350.12	-1000000	-1000000	-1000000	-1000000	
24.48	4.196	6137.9	6.530	350.03	-1000000	-1000000	-1000000	-1000000	
24.50	4.196	6109.8	6.528	349.81	-1000000	-1000000	-1000000	-1000000	
24.52	4.195	6081.2	6.527	349.68	-1000000	-1000000	-1000000	-1000000	
24.54	4.195	6052.3	6.525	349.51	-1000000	-1000000	-1000000	-1000000	
24.56	4.195	6023.3	6.524	349.36	-1000000	-1000000	-1000000	-1000000	
24.58	4.195	5994.3	6.522	349.31	-1000000	-1000000	-1000000	-1000000	
24.60	4.194	5965.2	6.520	349.48	-1000000	-1000000	-1000000	-1000000	
24.62	4.194	5936.0	6.519	349.57	-1000000	-1000000	-1000000	-1000000	
24.64	4.194	5907.1	6.517	349.40	-1000000	-1000000	-1000000	-1000000	
24.66	4.193	5877.8	6.516	349.24	-1000000	-1000000	-1000000	-1000000	
24.68	4.193	5848.2	6.514	349.32	-1000000	-1000000	-1000000	-1000000	
24.70	4.193	5818.8	6.513	349.34	-1000000	-1000000	-1000000	-1000000	
24.72	4.192	5789.2	6.511	349.49	-1000000	-1000000	-1000000	-1000000	
24.74	4.192	5759.1	6.509	349.66	-1000000	-1000000	-1000000	-1000000	
24.76	4.192	5728.2	6.508	349.90	-1000000	-1000000	-1000000	-1000000	
24.78	4.192	5696.4	6.506	349.93	-1000000	-1000000	-1000000	-1000000	
24.80	4.191	5663.6	6.504	349.75	-1000000	-1000000	-1000000	-1000000	
24.82	4.191	5630.3	6.502	349.24	-1000000	-1000000	-1000000	-1000000	
24.84	4.191	5596.7	6.501	349.23	-1000000	-1000000	-1000000	-1000000	
24.86	4.190	5562.2	6.499	349.34	-1000000	-1000000	-1000000	-1000000	
24.88	4.190	5528.1	6.497	349.33	-1000000	-1000000	-1000000	-1000000	
24.90	4.190	5494.3	6.496	349.22	-1000000	-1000000	-1000000	-1000000	
24.92	4.189	5460.8	6.494	349.23	-1000000	-1000000	-1000000	-1000000	
24.94	4.189	5427.5	6.492	349.17	-1000000	-1000000	-1000000	-1000000	
24.96	4.189	5394.6	6.491	349.23	-1000000	-1000000	-1000000	-1000000	
24.98	4.189	5361.6	6.489	349.60	-1000000	-1000000	-1000000	-1000000	
25.00	4.188	5328.1	6.487	349.75	-1000000	-1000000	-1000000	-1000000	
25.02	4.188	5294.3	6.485	349.75	-1000000	-1000000	-1000000	-1000000	
25.04	4.188	5260.9	6.484	349.69	-1000000	-1000000	-1000000	-1000000	
25.06	4.187	5227.6	6.482	349.57	-1000000	-1000000	-1000000	-1000000	
25.08	4.187	5194.7	6.480	349.82	-1000000	-1000000	-1000000	-1000000	
25.10	4.187	5161.7	6.478	349.98	-1000000	-1000000	-1000000	-1000000	
25.12	4.186	5128.3	6.477	350.11	-1000000	-1000000	-1000000	-1000000	
25.14	4.186	5094.8	6.475	350.20	-1000000	-1000000	-1000000	-1000000	
25.16	4.186	5061.1	6.473	350.14	-1000000	-1000000	-1000000	-1000000	
25.18	4.185	5026.8	6.471	350.17	-1000000	-1000000	-1000000	-1000000	
25.20	4.185	4992.2	6.469	350.23	-1000000	-1000000	-1000000	-1000000	
25.22	4.185	4957.6	6.468	350.17	-1000000	-1000000	-1000000	-1000000	
25.24	4.184	4923.7	6.466	349.84	-1000000	-1000000	-1000000	-1000000	
25.26	4.184	4890.2	6.464	349.78	-1000000	-1000000	-1000000	-1000000	
25.28	4.184	4856.6	6.462	349.99	-1000000	-1000000	-1000000	-1000000	
25.30	4.183	4823.0	6.460	349.98	-1000000	-1000000	-1000000	-1000000	
25.32	4.183	4789.4	6.459	349.80	-1000000	-1000000	-1000000	-1000000	
25.34	4.183	4755.8	6.457	349.95	-1000000	-1000000	-1000000	-1000000	
25.36	4.182	4722.3	6.455	349.95	-1000000	-1000000	-1000000	-1000000	
25.38	4.182	4688.8	6.453	349.54	-1000000	-1000000	-1000000	-1000000	
25.40	4.182	4655.8	6.451	349.40	-1000000	-1000000	-1000000	-1000000	
25.42	4.181	4623.0	6.449	349.42	-1000000	-1000000	-1000000	-1000000	
25.44	4.181	4589.6	6.447	349.37	-1000000	-1000000	-1000000	-1000000	
25.46	4.181	4556.0	6.445	349.82	-1000000	-1000000	-1000000	-1000000	
25.48	4.180	4522.7	6.443	350.01	-1000000	-1000000	-1000000	-1000000	
25.50	4.180	4488.6	6.442	350.01	-1000000	-1000000	-1000000	-1000000	
25.52	4.180	4453.8	6.440	349.95	-1000000	-1000000	-1000000	-1000000	
25.54	4.179	4418.3	6.438	349.82	-1000000	-1000000	-1000000	-1000000	
25.56	4.179	4382.1	6.436	349.30	-1000000	-1000000	-1000000	-1000000	
25.58	4.178	4345.3	6.434	349.17	-1000000	-1000000	-1000000	-1000000	
25.60	4.178	4308.0	6.432	349.46	-1000000	-1000000	-1000000	-1000000	
25.62	4.178	4270.2	6.430	349.73	-1000000	-1000000	-1000000	-1000000	
25.64	4.178	4232.7	6.428	349.67	-1000000	-1000000	-1000000	-1000000	
25.66	4.177	4195.7	6.426	349.99	-1000000	-1000000	-1000000	-1000000	
25.68	4.177	4158.8	6.424	350.40	-1000000	-1000000	-1000000	-1000000	
25.70	4.176	4122.0	6.422	350.41	-1000000	-1000000	-1000000	-1000000	
25.72	4.176	4085.3	6.420	350.51	-1000000	-1000000	-1000000	-1000000	
25.74	4.176	4048.3	6.418	350.53	-1000000	-1000000	-1000000	-1000000	
25.76	4.175	4012.0	6.416	350.39	-1000000	-1000000	-1000000	-1000000	
25.78	4.175	3975.8	6.414	349.89	-1000000	-1000000	-1000000	-1000000	
25.80	4.175	3939.8	6.412	349.93	-1000000	-1000000	-1000000	-1000000	
25.82	4.174	3903.7	6.411	350.00	-1000000	-1000000	-1000000	-1000000	
25.84	4.174	3868.1	6.409	349.84	-1000000	-1000000	-1000000	-1000000	
25.86	4.173	3832.6	6.407	349.64	-1000000	-1000000	-1000000	-1000000	
25.88	4.173	3797.2	6.405	349.64	-1000000	-1000000	-1000000	-1000000	
25.90	4.173	3761.9	6.402	349.64	-1000000	-1000000	-1000000	-1000000	
25.92	4.172	3726.4	6.400	349.77	-1000000	-1000000	-1000000	-1000000	
25.94	4.172	3690.9	6.398	349.69	-1000000	-1000000	-1000000	-1000000	
25.96	4.171	3655.2	6.396	349.78	-1000000	-1000000	-1000000	-1000000	
25.98	4.171	3619.5	6.394	349.71	-1000000	-1000000	-1000000	-1000000	
26.00	4.171	3583.1	6.392	349.38	-1000000	-1000000	-1000000	-1000000	
26.02	4.170	3546.4	6.390	349.24	-1000000	-1000000	-1000000	-1000000	
26.04	4.170	3510.2	6.388	349.76	-1000000	-1000000	-1000000	-1000000	
26.06	4.170	3474.2	6.386	349.96	-1000000	-1000000	-1000000	-1000000	
26.08	4.169	3437.3	6.384	349.74	-1000000	-1000000	-1000000	-1000000	
26.10	4.169	3399.7	6.382	349.31	-1000000	-1000000	-1000000	-1000000	
26.12	4.168	3361.9	6.380	349.34	-1000000	-1000000	-1000000	-1000000	
26.14	4.168	3324.1	6.378	349.78	-1000000	-1000000	-1000000	-1000000	
26.16	4.168	3285.8	6.375	349.86	-1000000	-1000000	-1000000	-1000000	
26.18	4.167	3246.7	6.373	349.86	-1000000	-1000000	-1000000	-1000000	
26.20	4.167	3207.2	6.371	349.82	-1000000	-1000000	-1000000	-1000000	
26.22	4.167	3167.7	6.369	349.81	-1000000	-1000000	-1000000	-1000000	
26.24	4.166	3128.0	6.367	349.92	-1000000	-1000000	-1000000	-1000000	
26.26	4.166	3088.8	6.365	349.94	-1000000	-1000000	-1000000	-1000000	
26.28	4.165	3049.9	6.362	350.09	-1000000	-1000000	-1000000	-1000000	
26.30	4.165	3011.1	6.360	350.20	-1000000	-1000000	-1000000	-1000000	
26.32	4.165	2972.4	6.358	350.37	-1000000	-1000000	-1000000	-1000000	
26.34	4.164	2934.0	6.356	350.48	-1000000	-1000000	-1000000	-1000000	
26.36	4.164	2895.5	6.354	350.31	-1000000	-1000000	-1000000	-1000000	
26.38	4.163	2857.1	6.352	350.35	-1000000	-1000000	-1000000	-1000000	
26.40	4.163	2818.9	6.349	350.33	-1000000	-1000000	-1000000	-1000000	
26.42	4.162	2780.9	6.347	350.33	-1000000	-1000000	-1000000	-1000000	
26.44	4.162	2742.8	6.345	350.08	-1000000	-1000000	-1000000	-1000000	
26.46	4.162	2704.7	6.343	349.82	-1000000	-1000000	-1000000	-1000000	
26.48	4.161	2666.9	6.341	349.64	-1000000	-1000000	-1000000	-1000000	
26.50	4.161	2629.1	6.338	349.72	-1000000	-1000000	-1000000	-1000000	
26.52	4.160	2591.5	6.336	349.92	-1000000	-1000000	-1000000	-1000000	
26.54	4.160	2553.4	6.334	349.87	-1000000	-1000000	-1000000	-1000000	
26.56	4.159	2515.1	6.332	349.80	-1000000	-1000000	-1000000	-1000000	
26.58	4.159	2476.4	6.330	349.95	-1000000	-1000000	-1000000	-1000000	
26.60	4.159	2437.4	6.327	349.81	-1000000	-1000000	-1000000	-1000000	
26.62	4.158	2398.0	6.325	349.50	-1000000	-1000000	-1000000	-1000000	
26.64	4.158	2358.5	6.323	349.43	-1000000	-1000000	-1000000	-1000000	
26.66	4.157	2318.8	6.320	349.65	-1000000	-1000000	-1000000	-1000000	
26.68	4.157	2279.1	6.318	349.84	-1000000	-1000000	-1000000	-1000000	
26.70	4.156	2239.7	6.316	349.95	-1000000	-1000000	-1000000	-1000000	
26.72	4.156	2200.5	6.313	349.89	-1000000	-1000000	-1000000	-1000000	
26.74	4.156	2161.3	6.311	349.84	-1000000	-1000000	-1000000	-1000000	
26.76	4.155	2122.5	6.309	349.63	-1000000	-1000000	-1000000	-1000000	
26.78	4.155	2083.5	6.306	349.56	-1000000	-1000000	-1000000	-1000000	
26.80	4.154	2043.7	6.304	349.56	-1000000	-1000000	-1000000	-1000000	
26.82	4.154	2003.9	6.302	349.64	-1000000	-1000000	-1000000	-1000000	
26.84	4.153	1964.4	6.299	349.45	-1000000	-1000000	-1000000	-1000000	
26.86	4.153	1924.7	6.297	349.44	-1000000	-1000000	-1000000	-1000000	
26.88	4.152	1884.5	6.295	349.30	-1000000	-1000000	-1000000	-1000000	
26.90	4.152	1843.8	6.292	349.18	-1000000	-1000000	-1000000	-1000000	
26.92	4.151	1802.7	6.290	349.27	-1000000	-1000000	-1000000	-1000000	
26.94	4.151	1761.0	6.288	349.41	-1000000	-1000000	-1000000	-1000000	
26.96	4.150	1718.6	6.285	349.47	-1000000	-1000000	-1000000	-1000000	
26.98	4.150	1675.9	6.283	349.61	-1000000	-1000000	-1000000	-1000000	
27.00	4.149	1633.5	6.280	349.66	-1000000	-1000000	-1000000	-1000000	
27.02	4.149	1590.8	6.278	349.52	-1000000	-1000000	-1000000	-1000000	
27.04	4.149	1547.6	6.275	349.47	-1000000	-1000000	-1000000	-1000000	
27.06	4.148	1504.4	6.273	349.60	-1000000	-1000000	-1000000	-1000000	
27.08	4.148	1461.5	6.271	349.87	-1000000	-1000000	-1000000	-1000000	
27.10	4.147	1418.4	6.268	350.16	-1000000	-1000000	-1000000	-1000000	
27.12	4.147	1374.8	6.266	350.09	-1000000	-1000000	-1000000	-1000000	
27.14	4.146	1331.1	6.264	350.17	-1000000	-1000000	-1000000	-1000000	
27.16	4.146	1287.5	6.261	350.39	-1000000	-1000000	-1000000	-1000000	
27.18	4.145	1244.5	6.259	350.30	-1000000	-1000000	-1000000	-1000000	
27.20	4.145	1201.7	6.256	350.03	-1000000	-1000000	-1000000	-1000000	
27.22	4.144	1159.0	6.254	349.98	-1000000	-1000000	-1000000	-1000000	
27.24	4.144	1116.0	6.251	349.91	-1000000	-1000000	-1000000	-1000000	
27.26	4.143	1073.2	6.249	349.72	-1000000	-1000000	-1000000	-1000000	
27.28	4.143	1030.5	6.246	349.49	-1000000	-1000000	-1000000	-1000000	
27.30	4.142	988.23	6.244	349.50	-1000000	-1000000	-1000000	-1000000	
27.32	4.142	946.24	6.241	349.78	-1000000	-1000000	-1000000	-1000000	
27.34	4.141	904.08	6.239	349.71	-1000000	-1000000	-1000000	-1000000	
27.36	4.141	861.75	6.236	349.86	-1000000	-1000000	-1000000	-1000000	
27.38	4.140	819.09	6.233	350.05	-1000000	-1000000	-1000000	-1000000	
27.40	4.139	775.49	6.231	349.77	-1000000	-1000000	-1000000	-1000000	
27.42	4.139	731.14	6.228	349.60	-1000000	-1000000	-1000000	-1000000	
27.44	4.138	686.28	6.226	349.84	-1000000	-1000000	-1000000	-1000000	
27.46	4.138	641.29	6.223	349.84	-1000000	-1000000	-1000000	-1000000	
27.48	4.137	595.92	6.221	349.69	-1000000	-1000000	-1000000	-1000000	
27.50	4.137	549.76	6.219	349.87	-1000000	-1000000	-1000000	-1000000	
27.52	4.136	503.54	6.216	350.05	-1000000	-1000000	-1000000	-1000000	
27.54	4.136	457.70	6.213	350.05	-1000000	-1000000	-1000000	-1000000	
27.56	4.135	411.79	6.210	349.88	-1000000	-1000000	-1000000	-1000000	
27.58	4.134	365.58	6.208	349.68	-1000000	-1000000	-1000000	-1000000	
27.60	4.134	319.51	6.205	349.74	-1000000	-1000000	-1000000	-1000000	
27.62	4.133	273.71	6.203	350.02	-1000000	-1000000	-1000000	-1000000	
27.64	4.133	227.40	6.200	350.10	-1000000	-1000000	-1000000	-1000000	
27.66	4.132	180.94	6.198	350.04	-1000000	-1000000	-1000000	-1000000	
27.68	4.132	135.05	6.195	349.87	-1000000	-1000000	-1000000	-1000000	
27.70	4.131	89.41	6.192	350.09	-1000000	-1000000	-1000000	-1000000	
27.72	4.131	45.15	6.190	350.31	-1000000	-1000000	-1000000	-1000000	
27.74	4.130	4.156	6.187	350.30	-1000000	-1000000	-1000000	-1000000	
27.76	4.130	-31.06	6.185	350.00	-1000000	-1000000	-1000000	-1000000	
27.78	4.130	-57.86	6.183	349.88	-1000000	-1000000	-1000000	-1000000	
27.80	4.130	-75.12	6.182	349.91	-1000000	-1000000	-1000000	-1000000	
27.82	4.130	-83.48	6.182	350.00	-1000000	-1000000	-1000000	-1000000	
27.84	4.130	-85.45	6.181	349.87	-1000000	-1000000	-1000000	-1000000	
27.86	4.130	-84.89	6.181	349.51	-1000000	-1000000	-1000000	-1000000	
27.88	4.130	-84.50	6.181	349.62	-1000000	-1000000	-1000000	-1000000	
27.90	4.130	-84.51	6.181	349.77	-1000000	-1000000	-1000000	-1000000	
27.92	4.130	-84.62	6.181	349.70	-1000000	-1000000	-1000000	-1000000	
27.94	4.130	-84.69	6.181	349.74	-1000000	-1000000	-1000000	-1000000	
27.96	4.130	-84.69	6.181	349.82	-1000000	-1000000	-1000000	-1000000	
27.98	4.130	-84.66	6.181	349.78	-1000000	-1000000	-1000000	-1000000	
28.00	4.130	-84.59	6.181	349.88	-1000000	-1000000	-1000000	-1000000	
28.02	4.130	-84.69	6.181	349.80	-1000000	-1000000	-1000000	-1000000	
28.04	4.130	-84.82	6.181	349.71	-1000000	-1000000	-1000000	-1000000	
28.06	4.130	-84.79	6.181	349.53	-1000000	-1000000	-1000000	-1000000	
28.08	4.130	-84.70	6.181	349.40	-1000000	-1000000	-1000000	-1000000	
28.10	4.130	-84.82	6.181	349.42	-1000000	-1000000	-1000000	-1000000	
28.12	4.130	-84.89	6.181	349.33	-1000000	-1000000	-1000000	-1000000	
28.14	4.130	-84.84	6.181	349.54	-1000000	-1000000	-1000000	-1000000	
28.16	4.129	-84.56	6.181	349.65	-1000000	-1000000	-1000000	-1000000	
28.18	4.129	-84.41	6.181	349.48	-1000000	-1000000	-1000000	-1000000	
28.20	4.129	-84.52	6.181	349.12	-1000000	-1000000	-1000000	-1000000	
28.22	4.129	-84.69	6.181	349.28	-1000000	-1000000	-1000000	-1000000	
28.24	4.129	-84.89	6.181	349.67	-1000000	-1000000	-1000000	-1000000	
28.26	4.129	-84.98	6.181	349.74	-1000000	-1000000	-1000000	-1000000	
28.28	4.129	-84.80	6.181	349.56	-1000000	-1000000	-1000000	-1000000	
28.30	4.129	-84.61	6.181	349.70	-1000000	-1000000	-1000000	-1000000	
28.32	4.129	-83.88	6.181	349.83	-1000000	-1000000	-1000000	-1000000	
28.34	4.129	-71.12	6.181	350.43	-1000000	-1000000	-1000000	-1000000	
28.36	4.129	-53.07	6.181	350.63	-1000000	-1000000	-1000000	-1000000	
28.38	4.129	-44.90	6.181	350.10	-1000000	-1000000	-1000000	-1000000	
28.40	4.129	-43.95	6.181	349.43	-1000000	-1000000	-1000000	-1000000	
28.42	4.129	-44.45	6.181	349.31	-1000000	-1000000	-1000000	-1000000	
28.44	4.129	-44.10	6.181	349.54	-1000000	-1000000	-1000000	-1000000	
28.46	4.129	-43.15	6.181	349.75	-1000000	-1000000	-1000000	-1000000	
28.48	4.129	-42.22	6.181	349.77	-1000000	-1000000	-1000000	-1000000	
28.50	4.129	-41.24	6.181	350.04	-1000000	-1000000	-1000000	-1000000	
28.52	4.129	-40.12	6.181	349.84	-1000000	-1000000	-1000000	-1000000	
28.54	4.129	-38.95	6.181	349.68	-1000000	-1000000	-1000000	-1000000	
28.56	4.129	-38.07	6.181	349.51	-1000000	-1000000	-1000000	-1000000	
28.58	4.129	-37.62	6.181	349.54	-1000000	-1000000	-1000000	-1000000	
28.60	4.129	-36.88	6.181	349.82	-1000000	-1000000	-1000000	-1000000	
28.62	4.129	-36.25	6.181	350.17	-1000000	-1000000	-1000000	-1000000	
28.64	4.129	-35.48	6.181	350.05	-1000000	-1000000	-1000000	-1000000	
28.66	4.129	-34.57	6.181	349.75	-1000000	-1000000	-1000000	-1000000	
28.68	4.129	-33.20	6.181	349.72	-1000000	-1000000	-1000000	-1000000	
28.70	4.129	-31.49	6.181	349.82	-1000000	-1000000	-1000000	-1000000	
28.72	4.129	-29.74	6.181	349.82	-1000000	-1000000	-1000000	-1000000	
28.74	4.129	-27.59	6.181	349.70	-1000000	-1000000	-1000000	-1000000	
28.76	4.129	-25.83	6.181	349.42	-1000000	-1000000	-1000000	-1000000	
28.78	4.129	-23.87	6.181	349.34	-1000000	-1000000	-1000000	-1000000	
28.80	4.129	-22.31	6.181	349.20	-1000000	-1000000	-1000000	-1000000	
28.82	4.129	-20.07	6.181	349.06	-1000000	-1000000	-1000000	-1000000	
28.84	4.129	-18.08	6.181	349.40	-1000000	-1000000	-1000000	-1000000	
28.86	4.129	-16.43	6.181	349.45	-1000000	-1000000	-1000000	-1000000	
28.88	4.129	-13.73	6.181	349.16	-1000000	-1000000	-1000000	-1000000	
28.90	4.129	-11.20	6.181	348.86	-1000000	-1000000	-1000000	-1000000	
28.92	4.129	-9.689	6.181	348.95	-1000000	-1000000	-1000000	-1000000	
28.94	4.129	-8.183	6.181	349.08	-1000000	-1000000	-1000000	-1000000	
28.96	4.129	-5.751	6.181	349.01	-1000000	-1000000	-1000000	-1000000	
28.98	4.129	-2.683	6.181	348.69	-1000000	-1000000	-1000000	-1000000	
29.00	4.129	0.1502	6.181	348.78	-1000000	-1000000	-1000000	-1000000	
29.02	4.129	2.438	6.181	348.90	-1000000	-1000000	-1000000	-1000000	
29.04	4.129	4.384	6.181	348.99	-1000000	-1000000	-1000000	-1000000	
29.06	4.129	6.058	6.181	348.65	-1000000	-1000000	-1000000	-1000000	
29.08	4.129	7.629	6.181	348.34	-1000000	-1000000	-1000000	-1000000	
29.10	4.129	8.790	6.181	348.12	-1000000	-1000000	-1000000	-1000000	
29.12	4.129	10.15	6.181	348.04	-1000000	-1000000	-1000000	-1000000	
29.14	4.129	12.58	6.181	348.03	-1000000	-1000000	-1000000	-1000000	
29.16	4.128	15.95	6.181	348.11	-1000000	-1000000	-1000000	-1000000	
29.18	4.127	18.26	6.181	348.16	-1000000	-1000000	-1000000	-1000000	
29.20	4.126	19.51	6.181	348.44	-1000000	-1000000	-1000000	-1000000	
29.22	4.126	22.11	6.181	348.33	-1000000	-1000000	-1000000	-1000000	
29.24	4.126	24.53	6.181	348.37	-1000000	-1000000	-1000000	-1000000	
29.26	4.126	26.19	6.181	348.23	-1000000	-1000000	-1000000	-1000000	
29.28	4.126	28.00	6.181	348.09	-1000000	-1000000	-1000000	-1000000	
29.30	4.126	29.54	6.181	347.76	-1000000	-1000000	-1000000	-1000000	
29.32	4.126	31.44	6.181	347.56	-1000000	-1000000	-1000000	-1000000	
29.34	4.126	33.53	6.181	347.67	-1000000	-1000000	-1000000	-1000000	
29.36	4.126	35.36	6.181	347.78	-1000000	-1000000	-1000000	-1000000	
29.38	4.126	37.10	6.181	347.75	-1000000	-1000000	-1000000	-1000000	
29.40	4.126	38.64	6.181	347.59	-1000000	-1000000	-1000000	-1000000	
29.42	4.126	40.75	6.181	347.31	-1000000	-1000000	-1000000	-1000000	
29.44	4.127	42.92	6.181	347.30	-1000000	-1000000	-1000000	-1000000	
29.46	4.128	44.86	6.181	347.01	-1000000	-1000000	-1000000	-1000000	
29.48	4.128	46.84	6.181	346.78	-1000000	-1000000	-1000000	-1000000	
29.50	4.128	48.68	6.181	346.94	-1000000	-1000000	-1000000	-1000000	
29.52	4.128	50.57	6.181	347.21	-1000000	-1000000	-1000000	-1000000	
29.54	4.128	52.71	6.181	347.16	-1000000	-1000000	-1000000	-1000000	
29.56	4.128	54.72	6.181	346.62	-1000000	-1000000	-1000000	-1000000	
29.58	4.128	56.56	6.181	346.46	-1000000	-1000000	-1000000	-1000000	
29.60	4.128	58.42	6.181	346.42	-1000000	-1000000	-1000000	-1000000	
29.62	4.128	60.36	6.181	346.63	-1000000	-1000000	-1000000	-1000000	
29.64	4.128	62.40	6.181	346.75	-1000000	-1000000	-1000000	-1000000	
29.66	4.128	64.51	6.181	346.82	-1000000	-1000000	-1000000	-1000000	
29.68	4.128	66.52	6.181	346.72	-1000000	-1000000	-1000000	-1000000	
29.70	4.128	68.35	6.181	346.32	-1000000	-1000000	-1000000	-1000000	
29.72	4.128	69.99	6.181	346.06	-1000000	-1000000	-1000000	-1000000	
29.74	4.128	71.46	6.181	346.13	-1000000	-1000000	-1000000	-1000000	
29.76	4.128	73.17	6.181	346.09	-1000000	-1000000	-1000000	-1000000	
29.78	4.128	75.27	6.181	345.98	-1000000	-1000000	-1000000	-1000000	
29.80	4.128	77.29	6.181	345.92	-1000000	-1000000	-1000000	-1000000	
29.82	4.128	79.11	6.181	345.83	-1000000	-1000000	-1000000	-1000000	
29.84	4.128	81.08	6.181	345.86	-1000000	-1000000	-1000000	-1000000	
29.86	4.128	83.15	6.181	345.73	-1000000	-1000000	-1000000	-1000000	
29.88	4.128	85.10	6.181	345.21	-1000000	-1000000	-1000000	-1000000	
29.90	4.128	86.96	6.181	345.29	-1000000	-1000000	-1000000	-1000000	
29.92	4.128	88.59	6.181	345.94	-1000000	-1000000	-1000000	-1000000	
29.94	4.128	90.35	6.181	346.23	-1000000	-1000000	-1000000	-1000000	
29.96	4.128	92.45	6.181	345.88	-1000000	-1000000	-1000000	-1000000	
29.98	4.128	94.32	6.181	345.57	-1000000	-1000000	-1000000	-1000000	
30.00	4.128	95.84	6.181	345.54	-1000000	-1000000	-1000000	-1000000	
30.02	4.128	97.35	6.181	345.77	-1000000	-1000000	-1000000	-1000000	
30.04	4.128	99.10	6.181	345.71	-1000000	-1000000	-1000000	-1000000	
30.06	4.128	101.18	6.181	345.41	-1000000	-1000000	-1000000	-1000000	
30.08	4.128	102.90	6.181	345.33	-1000000	-1000000	-1000000	-1000000	
30.10	4.128	104.40	6.181	345.31	-1000000	-1000000	-1000000	-1000000	
30.12	4.128	106.04	6.181	345.34	-1000000	-1000000	-1000000	-1000000	
30.14	4.127	108.00	6.181	345.24	-1000000	-1000000	-1000000	-1000000	
30.16	4.127	109.86	6.181	344.91	-1000000	-1000000	-1000000	-1000000	
30.18	4.127	111.60	6.181	344.67	-1000000	-1000000	-1000000	-1000000	
30.20	4.128	113.47	6.181	344.64	-1000000	-1000000	-1000000	-1000000	
30.22	4.128	115.29	6.181	344.40	-1000000	-1000000	-1000000	-1000000	
30.24	4.128	116.89	6.181	344.50	-1000000	-1000000	-1000000	-1000000	
30.26	4.127	118.46	6.181	344.58	-1000000	-1000000	-1000000	-1000000	
30.28	4.127	120.23	6.181	344.59	-1000000	-1000000	-1000000	-1000000	
30.30	4.127	122.10	6.181	344.66	-1000000	-1000000	-1000000	-1000000	
30.32	4.127	124.02	6.181	345.05	-1000000	-1000000	-1000000	-1000000	
30.34	4.127	125.92	6.181	345.35	-1000000	-1000000	-1000000	-1000000	
30.36	4.127	127.68	6.181	345.11	-1000000	-1000000	-1000000	-1000000	
30.38	4.127	129.43	6.181	344.30	-1000000	-1000000	-1000000	-1000000	
30.40	4.127	131.19	6.181	344.10	-1000000	-1000000	-1000000	-1000000	
30.42	4.127	132.95	6.181	344.56	-1000000	-1000000	-1000000	-1000000	
30.44	4.127	134.60	6.181	344.80	-1000000	-1000000	-1000000	-1000000	
30.46	4.127	136.19	6.181	344.15	-1000000	-1000000	-1000000	-1000000	
30.48	4.127	137.86	6.181	344.00	-1000000	-1000000	-1000000	-1000000	
30.50	4.127	139.39	6.181	344.17	-1000000	-1000000	-1000000	-1000000	