Zeit  1 - Standardmessrate [s]	Maytec [mm]	Kraft [N]	Standardwegaufnehmer [mm]	Pyrometer [°C]	Drehwinkel [V]	MX840_0_CH 6 [V]	MX840_0_CH 7 [V]	MX840_0_CH 8 [V]
0	0.03149	131.30	0.8833	300.10	-1000000	-1000000	-1000000	-1000000	
0.02000	0.03146	130.60	0.8834	300.12	-1000000	-1000000	-1000000	-1000000	
0.04000	0.03143	130.47	0.8835	300.14	-1000000	-1000000	-1000000	-1000000	
0.06000	0.03143	131.25	0.8835	300.13	-1000000	-1000000	-1000000	-1000000	
0.08000	0.03149	131.87	0.8835	300.11	-1000000	-1000000	-1000000	-1000000	
0.1000	0.03159	131.98	0.8834	300.11	-1000000	-1000000	-1000000	-1000000	
0.1200	0.03164	131.92	0.8834	300.13	-1000000	-1000000	-1000000	-1000000	
0.1400	0.03157	131.88	0.8834	300.14	-1000000	-1000000	-1000000	-1000000	
0.1600	0.03152	131.99	0.8835	300.12	-1000000	-1000000	-1000000	-1000000	
0.1800	0.03153	132.12	0.8834	300.11	-1000000	-1000000	-1000000	-1000000	
0.2000	0.03159	132.20	0.8834	300.11	-1000000	-1000000	-1000000	-1000000	
0.2200	0.03161	132.15	0.8834	300.13	-1000000	-1000000	-1000000	-1000000	
0.2400	0.03155	132.06	0.8833	300.14	-1000000	-1000000	-1000000	-1000000	
0.2600	0.03154	131.55	0.8834	300.13	-1000000	-1000000	-1000000	-1000000	
0.2800	0.03156	130.68	0.8833	300.11	-1000000	-1000000	-1000000	-1000000	
0.3000	0.03158	130.16	0.8833	300.12	-1000000	-1000000	-1000000	-1000000	
0.3200	0.03163	130.16	0.8833	300.14	-1000000	-1000000	-1000000	-1000000	
0.3400	0.03166	130.28	0.8835	300.14	-1000000	-1000000	-1000000	-1000000	
0.3600	0.03162	130.39	0.8838	300.12	-1000000	-1000000	-1000000	-1000000	
0.3800	0.03157	130.37	0.8839	300.10	-1000000	-1000000	-1000000	-1000000	
0.4000	0.03157	130.36	0.8840	300.12	-1000000	-1000000	-1000000	-1000000	
0.4200	0.03164	130.99	0.8840	300.14	-1000000	-1000000	-1000000	-1000000	
0.4400	0.03172	131.41	0.8841	300.13	-1000000	-1000000	-1000000	-1000000	
0.4600	0.03172	131.68	0.8840	300.11	-1000000	-1000000	-1000000	-1000000	
0.4800	0.03168	131.94	0.8840	300.11	-1000000	-1000000	-1000000	-1000000	
0.5000	0.03165	132.05	0.8839	300.12	-1000000	-1000000	-1000000	-1000000	
0.5200	0.03164	131.92	0.8840	300.14	-1000000	-1000000	-1000000	-1000000	
0.5400	0.03164	131.72	0.8840	300.12	-1000000	-1000000	-1000000	-1000000	
0.5600	0.03166	131.66	0.8841	300.10	-1000000	-1000000	-1000000	-1000000	
0.5800	0.03168	131.72	0.8840	300.11	-1000000	-1000000	-1000000	-1000000	
0.6000	0.03172	131.85	0.8840	300.13	-1000000	-1000000	-1000000	-1000000	
0.6200	0.03179	131.98	0.8840	300.14	-1000000	-1000000	-1000000	-1000000	
0.6400	0.03180	132.12	0.8840	300.12	-1000000	-1000000	-1000000	-1000000	
0.6600	0.03175	132.02	0.8839	300.11	-1000000	-1000000	-1000000	-1000000	
0.6800	0.03169	131.90	0.8840	300.12	-1000000	-1000000	-1000000	-1000000	
0.7000	0.03163	132.12	0.8841	300.13	-1000000	-1000000	-1000000	-1000000	
0.7200	0.03162	132.28	0.8841	300.14	-1000000	-1000000	-1000000	-1000000	
0.7400	0.03163	132.21	0.8840	300.12	-1000000	-1000000	-1000000	-1000000	
0.7600	0.03170	132.08	0.8840	300.10	-1000000	-1000000	-1000000	-1000000	
0.7800	0.03177	132.14	0.8840	300.12	-1000000	-1000000	-1000000	-1000000	
0.8000	0.03181	132.22	0.8840	300.14	-1000000	-1000000	-1000000	-1000000	
0.8200	0.03182	132.18	0.8841	300.13	-1000000	-1000000	-1000000	-1000000	
0.8400	0.03178	132.06	0.8841	300.11	-1000000	-1000000	-1000000	-1000000	
0.8600	0.03175	131.88	0.8841	300.11	-1000000	-1000000	-1000000	-1000000	
0.8800	0.03178	131.70	0.8840	300.12	-1000000	-1000000	-1000000	-1000000	
0.9000	0.03178	131.73	0.8841	300.14	-1000000	-1000000	-1000000	-1000000	
0.9200	0.03175	131.86	0.8844	300.13	-1000000	-1000000	-1000000	-1000000	
0.9400	0.03179	131.42	0.8846	300.11	-1000000	-1000000	-1000000	-1000000	
0.9600	0.03182	130.72	0.8847	300.11	-1000000	-1000000	-1000000	-1000000	
0.9800	0.03177	130.37	0.8847	300.13	-1000000	-1000000	-1000000	-1000000	
1.000	0.03173	130.28	0.8847	300.14	-1000000	-1000000	-1000000	-1000000	
1.020	0.03173	130.18	0.8847	300.13	-1000000	-1000000	-1000000	-1000000	
1.040	0.03174	130.10	0.8847	300.11	-1000000	-1000000	-1000000	-1000000	
1.060	0.03173	130.30	0.8846	300.11	-1000000	-1000000	-1000000	-1000000	
1.080	0.03172	130.80	0.8846	300.13	-1000000	-1000000	-1000000	-1000000	
1.100	0.03170	131.63	0.8847	300.13	-1000000	-1000000	-1000000	-1000000	
1.120	0.03174	131.91	0.8847	300.12	-1000000	-1000000	-1000000	-1000000	
1.140	0.03183	131.96	0.8847	300.11	-1000000	-1000000	-1000000	-1000000	
1.160	0.03186	132.13	0.8847	300.13	-1000000	-1000000	-1000000	-1000000	
1.180	0.03186	131.98	0.8847	300.15	-1000000	-1000000	-1000000	-1000000	
1.200	0.03184	131.78	0.8847	300.14	-1000000	-1000000	-1000000	-1000000	
1.220	0.03181	131.77	0.8847	300.12	-1000000	-1000000	-1000000	-1000000	
1.240	0.03175	131.72	0.8847	300.12	-1000000	-1000000	-1000000	-1000000	
1.260	0.03174	131.25	0.8847	300.16	-1000000	-1000000	-1000000	-1000000	
1.280	0.03180	131.30	0.8847	300.16	-1000000	-1000000	-1000000	-1000000	
1.300	0.03182	131.40	0.8847	300.14	-1000000	-1000000	-1000000	-1000000	
1.320	0.03182	131.80	0.8847	300.12	-1000000	-1000000	-1000000	-1000000	
1.340	0.03181	132.07	0.8847	300.10	-1000000	-1000000	-1000000	-1000000	
1.360	0.03185	132.02	0.8847	300.11	-1000000	-1000000	-1000000	-1000000	
1.380	0.03188	132.06	0.8847	300.14	-1000000	-1000000	-1000000	-1000000	
1.400	0.03184	132.00	0.8848	300.14	-1000000	-1000000	-1000000	-1000000	
1.420	0.03178	131.81	0.8847	300.12	-1000000	-1000000	-1000000	-1000000	
1.440	0.03181	131.81	0.8848	300.11	-1000000	-1000000	-1000000	-1000000	
1.460	0.03192	131.99	0.8848	300.12	-1000000	-1000000	-1000000	-1000000	
1.480	0.03198	131.98	0.8847	300.14	-1000000	-1000000	-1000000	-1000000	
1.500	0.03199	131.82	0.8848	300.13	-1000000	-1000000	-1000000	-1000000	
1.520	0.03195	131.73	0.8851	300.11	-1000000	-1000000	-1000000	-1000000	
1.540	0.03188	131.40	0.8853	300.11	-1000000	-1000000	-1000000	-1000000	
1.560	0.03185	130.81	0.8855	300.13	-1000000	-1000000	-1000000	-1000000	
1.580	0.03191	130.37	0.8855	300.14	-1000000	-1000000	-1000000	-1000000	
1.600	0.03193	130.22	0.8855	300.13	-1000000	-1000000	-1000000	-1000000	
1.620	0.03195	130.12	0.8855	300.11	-1000000	-1000000	-1000000	-1000000	
1.640	0.03200	130.03	0.8855	300.11	-1000000	-1000000	-1000000	-1000000	
1.660	0.03202	130.14	0.8854	300.13	-1000000	-1000000	-1000000	-1000000	
1.680	0.03200	130.28	0.8854	300.14	-1000000	-1000000	-1000000	-1000000	
1.700	0.03197	130.30	0.8854	300.12	-1000000	-1000000	-1000000	-1000000	
1.720	0.03193	130.22	0.8854	300.11	-1000000	-1000000	-1000000	-1000000	
1.740	0.03189	130.13	0.8854	300.12	-1000000	-1000000	-1000000	-1000000	
1.760	0.03190	130.65	0.8855	300.14	-1000000	-1000000	-1000000	-1000000	
1.780	0.03195	131.50	0.8855	300.14	-1000000	-1000000	-1000000	-1000000	
1.800	0.03198	131.95	0.8854	300.12	-1000000	-1000000	-1000000	-1000000	
1.820	0.03200	131.94	0.8854	300.11	-1000000	-1000000	-1000000	-1000000	
1.840	0.03196	131.90	0.8855	300.12	-1000000	-1000000	-1000000	-1000000	
1.860	0.03190	131.92	0.8855	300.14	-1000000	-1000000	-1000000	-1000000	
1.880	0.03189	131.99	0.8854	300.14	-1000000	-1000000	-1000000	-1000000	
1.900	0.03191	131.95	0.8853	300.12	-1000000	-1000000	-1000000	-1000000	
1.920	0.03193	131.91	0.8853	300.11	-1000000	-1000000	-1000000	-1000000	
1.940	0.03197	132.03	0.8854	300.12	-1000000	-1000000	-1000000	-1000000	
1.960	0.03204	132.03	0.8854	300.14	-1000000	-1000000	-1000000	-1000000	
1.980	0.03206	131.88	0.8854	300.13	-1000000	-1000000	-1000000	-1000000	
2.000	0.03204	131.54	0.8854	300.11	-1000000	-1000000	-1000000	-1000000	
2.020	0.03200	130.87	0.8854	300.11	-1000000	-1000000	-1000000	-1000000	
2.040	0.03199	130.43	0.8854	300.13	-1000000	-1000000	-1000000	-1000000	
2.060	0.03205	130.19	0.8854	300.15	-1000000	-1000000	-1000000	-1000000	
2.080	0.03204	130.12	0.8854	300.15	-1000000	-1000000	-1000000	-1000000	
2.100	0.03201	130.10	0.8856	300.12	-1000000	-1000000	-1000000	-1000000	
2.120	0.03201	130.49	0.8859	300.11	-1000000	-1000000	-1000000	-1000000	
2.140	0.03205	130.69	0.8861	300.13	-1000000	-1000000	-1000000	-1000000	
2.160	0.03209	130.49	0.8861	300.14	-1000000	-1000000	-1000000	-1000000	
2.180	0.03208	130.40	0.8860	300.12	-1000000	-1000000	-1000000	-1000000	
2.200	0.03205	130.29	0.8860	300.11	-1000000	-1000000	-1000000	-1000000	
2.220	0.03204	130.19	0.8859	300.11	-1000000	-1000000	-1000000	-1000000	
2.240	0.03206	130.24	0.8860	300.13	-1000000	-1000000	-1000000	-1000000	
2.260	0.03215	130.27	0.8860	300.14	-1000000	-1000000	-1000000	-1000000	
2.280	0.03216	130.23	0.8861	300.13	-1000000	-1000000	-1000000	-1000000	
2.300	0.03208	130.15	0.8861	300.11	-1000000	-1000000	-1000000	-1000000	
2.320	0.03205	130.07	0.8860	300.12	-1000000	-1000000	-1000000	-1000000	
2.340	0.03205	130.10	0.8860	300.14	-1000000	-1000000	-1000000	-1000000	
2.360	0.03204	130.31	0.8860	300.14	-1000000	-1000000	-1000000	-1000000	
2.380	0.03205	130.35	0.8861	300.12	-1000000	-1000000	-1000000	-1000000	
2.400	0.03205	130.41	0.8861	300.11	-1000000	-1000000	-1000000	-1000000	
2.420	0.03207	130.36	0.8861	300.12	-1000000	-1000000	-1000000	-1000000	
2.440	0.03207	129.74	0.8861	300.14	-1000000	-1000000	-1000000	-1000000	
2.460	0.03211	128.91	0.8860	300.14	-1000000	-1000000	-1000000	-1000000	
2.480	0.03218	128.51	0.8860	300.12	-1000000	-1000000	-1000000	-1000000	
2.500	0.03220	127.62	0.8860	300.11	-1000000	-1000000	-1000000	-1000000	
2.520	0.03222	126.15	0.8862	300.12	-1000000	-1000000	-1000000	-1000000	
2.540	0.03226	124.80	0.8865	300.14	-1000000	-1000000	-1000000	-1000000	
2.560	0.03231	123.10	0.8867	300.14	-1000000	-1000000	-1000000	-1000000	
2.580	0.03237	120.63	0.8868	300.12	-1000000	-1000000	-1000000	-1000000	
2.600	0.03252	117.20	0.8868	300.10	-1000000	-1000000	-1000000	-1000000	
2.620	0.03275	111.00	0.8870	300.12	-1000000	-1000000	-1000000	-1000000	
2.640	0.03317	99.24	0.8872	300.14	-1000000	-1000000	-1000000	-1000000	
2.660	0.03377	78.68	0.8876	300.13	-1000000	-1000000	-1000000	-1000000	
2.680	0.03446	49.26	0.8879	300.11	-1000000	-1000000	-1000000	-1000000	
2.700	0.03526	14.71	0.8887	300.11	-1000000	-1000000	-1000000	-1000000	
2.720	0.03615	-19.26	0.8899	300.13	-1000000	-1000000	-1000000	-1000000	
2.740	0.03707	-46.37	0.8918	300.14	-1000000	-1000000	-1000000	-1000000	
2.760	0.03799	-62.20	0.8945	300.13	-1000000	-1000000	-1000000	-1000000	
2.780	0.03889	-66.16	0.8978	300.11	-1000000	-1000000	-1000000	-1000000	
2.800	0.03979	-62.48	0.9014	300.11	-1000000	-1000000	-1000000	-1000000	
2.820	0.04069	-56.31	0.9050	300.13	-1000000	-1000000	-1000000	-1000000	
2.840	0.04153	-51.55	0.9082	300.14	-1000000	-1000000	-1000000	-1000000	
2.860	0.04240	-49.87	0.9114	300.12	-1000000	-1000000	-1000000	-1000000	
2.880	0.04329	-50.48	0.9144	300.10	-1000000	-1000000	-1000000	-1000000	
2.900	0.04420	-51.92	0.9175	300.12	-1000000	-1000000	-1000000	-1000000	
2.920	0.04511	-53.78	0.9206	300.14	-1000000	-1000000	-1000000	-1000000	
2.940	0.04598	-55.58	0.9237	300.14	-1000000	-1000000	-1000000	-1000000	
2.960	0.04683	-57.19	0.9268	300.12	-1000000	-1000000	-1000000	-1000000	
2.980	0.04770	-58.41	0.9300	300.11	-1000000	-1000000	-1000000	-1000000	
3.000	0.04863	-59.14	0.9330	300.12	-1000000	-1000000	-1000000	-1000000	
3.020	0.04958	-59.70	0.9363	300.14	-1000000	-1000000	-1000000	-1000000	
3.040	0.05044	-59.90	0.9395	300.14	-1000000	-1000000	-1000000	-1000000	
3.060	0.05136	-59.61	0.9426	300.12	-1000000	-1000000	-1000000	-1000000	
3.080	0.05228	-59.27	0.9458	300.11	-1000000	-1000000	-1000000	-1000000	
3.100	0.05314	-58.84	0.9491	300.13	-1000000	-1000000	-1000000	-1000000	
3.120	0.05403	-58.29	0.9523	300.14	-1000000	-1000000	-1000000	-1000000	
3.140	0.05497	-58.19	0.9555	300.13	-1000000	-1000000	-1000000	-1000000	
3.160	0.05595	-58.88	0.9587	300.11	-1000000	-1000000	-1000000	-1000000	
3.180	0.05690	-59.38	0.9619	300.11	-1000000	-1000000	-1000000	-1000000	
3.200	0.05777	-59.43	0.9651	300.13	-1000000	-1000000	-1000000	-1000000	
3.220	0.05866	-59.37	0.9683	300.14	-1000000	-1000000	-1000000	-1000000	
3.240	0.05960	-59.30	0.9716	300.13	-1000000	-1000000	-1000000	-1000000	
3.260	0.06050	-59.37	0.9749	300.11	-1000000	-1000000	-1000000	-1000000	
3.280	0.06135	-59.36	0.9782	300.12	-1000000	-1000000	-1000000	-1000000	
3.300	0.06226	-58.78	0.9814	300.14	-1000000	-1000000	-1000000	-1000000	
3.320	0.06321	-58.18	0.9846	300.14	-1000000	-1000000	-1000000	-1000000	
3.340	0.06418	-58.54	0.9878	300.12	-1000000	-1000000	-1000000	-1000000	
3.360	0.06514	-59.37	0.9910	300.11	-1000000	-1000000	-1000000	-1000000	
3.380	0.06603	-60.30	0.9943	300.12	-1000000	-1000000	-1000000	-1000000	
3.400	0.06690	-61.09	0.9975	300.14	-1000000	-1000000	-1000000	-1000000	
3.420	0.06777	-61.89	1.001	300.14	-1000000	-1000000	-1000000	-1000000	
3.440	0.06865	-62.88	1.004	300.12	-1000000	-1000000	-1000000	-1000000	
3.460	0.06959	-63.80	1.007	300.11	-1000000	-1000000	-1000000	-1000000	
3.480	0.07053	-63.78	1.010	300.12	-1000000	-1000000	-1000000	-1000000	
3.500	0.07144	-63.18	1.014	300.14	-1000000	-1000000	-1000000	-1000000	
3.520	0.07235	-62.27	1.017	300.14	-1000000	-1000000	-1000000	-1000000	
3.540	0.07332	-61.43	1.020	300.11	-1000000	-1000000	-1000000	-1000000	
3.560	0.07426	-61.11	1.023	300.11	-1000000	-1000000	-1000000	-1000000	
3.580	0.07514	-61.56	1.027	300.12	-1000000	-1000000	-1000000	-1000000	
3.600	0.07601	-62.37	1.030	300.14	-1000000	-1000000	-1000000	-1000000	
3.620	0.07697	-62.71	1.033	300.13	-1000000	-1000000	-1000000	-1000000	
3.640	0.07791	-62.39	1.037	300.11	-1000000	-1000000	-1000000	-1000000	
3.660	0.07889	-61.51	1.040	300.11	-1000000	-1000000	-1000000	-1000000	
3.680	0.07988	-60.95	1.043	300.13	-1000000	-1000000	-1000000	-1000000	
3.700	0.08081	-60.78	1.046	300.14	-1000000	-1000000	-1000000	-1000000	
3.720	0.08167	-60.20	1.050	300.13	-1000000	-1000000	-1000000	-1000000	
3.740	0.08251	-59.61	1.053	300.11	-1000000	-1000000	-1000000	-1000000	
3.760	0.08342	-59.93	1.056	300.11	-1000000	-1000000	-1000000	-1000000	
3.780	0.08438	-60.70	1.060	300.13	-1000000	-1000000	-1000000	-1000000	
3.800	0.08532	-61.47	1.063	300.14	-1000000	-1000000	-1000000	-1000000	
3.820	0.08624	-62.38	1.066	300.12	-1000000	-1000000	-1000000	-1000000	
3.840	0.08720	-63.24	1.069	300.10	-1000000	-1000000	-1000000	-1000000	
3.860	0.08811	-63.91	1.072	300.11	-1000000	-1000000	-1000000	-1000000	
3.880	0.08902	-63.85	1.076	300.14	-1000000	-1000000	-1000000	-1000000	
3.900	0.08994	-63.27	1.079	300.14	-1000000	-1000000	-1000000	-1000000	
3.920	0.09083	-62.85	1.082	300.12	-1000000	-1000000	-1000000	-1000000	
3.940	0.09169	-62.55	1.086	300.13	-1000000	-1000000	-1000000	-1000000	
3.960	0.09261	-61.89	1.089	300.26	-1000000	-1000000	-1000000	-1000000	
3.980	0.09357	-61.27	1.092	301.25	-1000000	-1000000	-1000000	-1000000	
4.000	0.09451	-61.22	1.095	302.00	-1000000	-1000000	-1000000	-1000000	
4.020	0.09542	-62.00	1.099	303.21	-1000000	-1000000	-1000000	-1000000	
4.040	0.09634	-62.66	1.102	304.62	-1000000	-1000000	-1000000	-1000000	
4.060	0.09726	-62.66	1.105	305.84	-1000000	-1000000	-1000000	-1000000	
4.080	0.09818	-61.99	1.108	306.75	-1000000	-1000000	-1000000	-1000000	
4.100	0.09910	-61.17	1.112	307.66	-1000000	-1000000	-1000000	-1000000	
4.120	0.09992	-60.10	1.115	309.72	-1000000	-1000000	-1000000	-1000000	
4.140	0.1008	-59.50	1.118	311.59	-1000000	-1000000	-1000000	-1000000	
4.160	0.1017	-59.39	1.122	313.16	-1000000	-1000000	-1000000	-1000000	
4.180	0.1026	-58.65	1.125	314.75	-1000000	-1000000	-1000000	-1000000	
4.200	0.1033	-55.14	1.128	316.23	-1000000	-1000000	-1000000	-1000000	
4.220	0.1040	-44.99	1.131	317.49	-1000000	-1000000	-1000000	-1000000	
4.240	0.1044	-26.00	1.134	319.12	-1000000	-1000000	-1000000	-1000000	
4.260	0.1047	2.374	1.138	319.99	-1000000	-1000000	-1000000	-1000000	
4.280	0.1049	37.72	1.140	319.94	-1000000	-1000000	-1000000	-1000000	
4.300	0.1050	73.92	1.143	320.25	-1000000	-1000000	-1000000	-1000000	
4.320	0.1051	103.81	1.144	320.26	-1000000	-1000000	-1000000	-1000000	
4.340	0.1051	124.35	1.145	320.04	-1000000	-1000000	-1000000	-1000000	
4.360	0.1052	135.60	1.145	320.47	-1000000	-1000000	-1000000	-1000000	
4.380	0.1051	139.71	1.145	320.55	-1000000	-1000000	-1000000	-1000000	
4.400	0.1051	140.24	1.145	320.56	-1000000	-1000000	-1000000	-1000000	
4.420	0.1051	139.52	1.145	320.16	-1000000	-1000000	-1000000	-1000000	
4.440	0.1051	138.51	1.145	320.09	-1000000	-1000000	-1000000	-1000000	
4.460	0.1051	137.70	1.145	320.09	-1000000	-1000000	-1000000	-1000000	
4.480	0.1051	137.35	1.145	319.98	-1000000	-1000000	-1000000	-1000000	
4.500	0.1051	137.21	1.145	319.40	-1000000	-1000000	-1000000	-1000000	
4.520	0.1051	137.05	1.145	319.71	-1000000	-1000000	-1000000	-1000000	
4.540	0.1051	137.01	1.145	320.24	-1000000	-1000000	-1000000	-1000000	
4.560	0.1051	137.08	1.144	320.51	-1000000	-1000000	-1000000	-1000000	
4.580	0.1051	136.91	1.145	320.21	-1000000	-1000000	-1000000	-1000000	
4.600	0.1051	136.28	1.144	320.38	-1000000	-1000000	-1000000	-1000000	
4.620	0.1051	135.60	1.144	320.44	-1000000	-1000000	-1000000	-1000000	
4.640	0.1051	134.37	1.144	320.45	-1000000	-1000000	-1000000	-1000000	
4.660	0.1052	132.27	1.145	320.35	-1000000	-1000000	-1000000	-1000000	
4.680	0.1052	128.86	1.145	320.46	-1000000	-1000000	-1000000	-1000000	
4.700	0.1052	123.37	1.145	320.28	-1000000	-1000000	-1000000	-1000000	
4.720	0.1053	115.22	1.145	320.39	-1000000	-1000000	-1000000	-1000000	
4.740	0.1054	105.20	1.145	320.49	-1000000	-1000000	-1000000	-1000000	
4.760	0.1055	94.74	1.145	320.58	-1000000	-1000000	-1000000	-1000000	
4.780	0.1057	86.61	1.145	320.78	-1000000	-1000000	-1000000	-1000000	
4.800	0.1058	83.07	1.146	321.24	-1000000	-1000000	-1000000	-1000000	
4.820	0.1060	85.27	1.146	321.39	-1000000	-1000000	-1000000	-1000000	
4.840	0.1062	93.01	1.148	321.51	-1000000	-1000000	-1000000	-1000000	
4.860	0.1063	103.18	1.148	321.43	-1000000	-1000000	-1000000	-1000000	
4.880	0.1064	112.45	1.149	321.61	-1000000	-1000000	-1000000	-1000000	
4.900	0.1064	118.06	1.150	321.94	-1000000	-1000000	-1000000	-1000000	
4.920	0.1064	119.15	1.150	321.46	-1000000	-1000000	-1000000	-1000000	
4.940	0.1065	116.73	1.150	321.25	-1000000	-1000000	-1000000	-1000000	
4.960	0.1066	112.41	1.150	321.51	-1000000	-1000000	-1000000	-1000000	
4.980	0.1067	107.42	1.150	322.00	-1000000	-1000000	-1000000	-1000000	
5.000	0.1069	102.49	1.150	322.42	-1000000	-1000000	-1000000	-1000000	
5.020	0.1070	98.05	1.151	322.58	-1000000	-1000000	-1000000	-1000000	
5.040	0.1072	94.27	1.151	322.52	-1000000	-1000000	-1000000	-1000000	
5.060	0.1073	91.54	1.151	322.83	-1000000	-1000000	-1000000	-1000000	
5.080	0.1075	91.06	1.152	323.15	-1000000	-1000000	-1000000	-1000000	
5.100	0.1076	92.92	1.153	323.31	-1000000	-1000000	-1000000	-1000000	
5.120	0.1077	95.90	1.154	323.49	-1000000	-1000000	-1000000	-1000000	
5.140	0.1078	99.34	1.154	323.89	-1000000	-1000000	-1000000	-1000000	
5.160	0.1079	102.12	1.154	324.45	-1000000	-1000000	-1000000	-1000000	
5.180	0.1081	103.20	1.154	325.09	-1000000	-1000000	-1000000	-1000000	
5.200	0.1081	102.52	1.155	325.18	-1000000	-1000000	-1000000	-1000000	
5.220	0.1082	101.05	1.156	325.07	-1000000	-1000000	-1000000	-1000000	
5.240	0.1084	100.17	1.156	325.18	-1000000	-1000000	-1000000	-1000000	
5.260	0.1085	100.65	1.157	325.48	-1000000	-1000000	-1000000	-1000000	
5.280	0.1086	102.88	1.158	325.51	-1000000	-1000000	-1000000	-1000000	
5.300	0.1087	106.38	1.158	325.31	-1000000	-1000000	-1000000	-1000000	
5.320	0.1088	110.16	1.158	325.41	-1000000	-1000000	-1000000	-1000000	
5.340	0.1089	112.66	1.158	326.02	-1000000	-1000000	-1000000	-1000000	
5.360	0.1090	112.88	1.158	326.13	-1000000	-1000000	-1000000	-1000000	
5.380	0.1091	110.53	1.158	326.54	-1000000	-1000000	-1000000	-1000000	
5.400	0.1092	106.64	1.159	327.45	-1000000	-1000000	-1000000	-1000000	
5.420	0.1093	102.90	1.159	328.00	-1000000	-1000000	-1000000	-1000000	
5.440	0.1094	100.56	1.160	327.79	-1000000	-1000000	-1000000	-1000000	
5.460	0.1094	100.20	1.160	327.89	-1000000	-1000000	-1000000	-1000000	
5.480	0.1095	101.64	1.161	328.24	-1000000	-1000000	-1000000	-1000000	
5.500	0.1096	104.33	1.162	328.55	-1000000	-1000000	-1000000	-1000000	
5.520	0.1098	107.08	1.162	328.83	-1000000	-1000000	-1000000	-1000000	
5.540	0.1099	109.59	1.162	328.83	-1000000	-1000000	-1000000	-1000000	
5.560	0.1099	111.70	1.163	329.18	-1000000	-1000000	-1000000	-1000000	
5.580	0.1100	113.46	1.163	329.29	-1000000	-1000000	-1000000	-1000000	
5.600	0.1100	114.89	1.163	329.27	-1000000	-1000000	-1000000	-1000000	
5.620	0.1101	115.87	1.163	329.74	-1000000	-1000000	-1000000	-1000000	
5.640	0.1101	116.36	1.164	329.91	-1000000	-1000000	-1000000	-1000000	
5.660	0.1102	116.73	1.164	329.63	-1000000	-1000000	-1000000	-1000000	
5.680	0.1103	116.86	1.164	329.58	-1000000	-1000000	-1000000	-1000000	
5.700	0.1104	116.32	1.165	329.90	-1000000	-1000000	-1000000	-1000000	
5.720	0.1105	114.95	1.165	330.04	-1000000	-1000000	-1000000	-1000000	
5.740	0.1105	113.79	1.165	330.37	-1000000	-1000000	-1000000	-1000000	
5.760	0.1106	113.18	1.165	330.66	-1000000	-1000000	-1000000	-1000000	
5.780	0.1106	112.37	1.166	330.88	-1000000	-1000000	-1000000	-1000000	
5.800	0.1107	111.48	1.166	331.46	-1000000	-1000000	-1000000	-1000000	
5.820	0.1108	110.11	1.166	331.66	-1000000	-1000000	-1000000	-1000000	
5.840	0.1109	108.44	1.167	331.40	-1000000	-1000000	-1000000	-1000000	
5.860	0.1111	106.79	1.167	331.41	-1000000	-1000000	-1000000	-1000000	
5.880	0.1112	105.98	1.167	331.92	-1000000	-1000000	-1000000	-1000000	
5.900	0.1113	106.76	1.168	332.53	-1000000	-1000000	-1000000	-1000000	
5.920	0.1113	108.38	1.168	332.91	-1000000	-1000000	-1000000	-1000000	
5.940	0.1113	110.11	1.169	332.80	-1000000	-1000000	-1000000	-1000000	
5.960	0.1114	111.35	1.169	332.96	-1000000	-1000000	-1000000	-1000000	
5.980	0.1115	111.72	1.169	333.44	-1000000	-1000000	-1000000	-1000000	
6.000	0.1116	111.63	1.169	334.12	-1000000	-1000000	-1000000	-1000000	
6.020	0.1117	111.67	1.170	334.25	-1000000	-1000000	-1000000	-1000000	
6.040	0.1118	112.01	1.170	334.02	-1000000	-1000000	-1000000	-1000000	
6.060	0.1118	113.29	1.170	333.89	-1000000	-1000000	-1000000	-1000000	
6.080	0.1118	115.21	1.171	333.97	-1000000	-1000000	-1000000	-1000000	
6.100	0.1119	117.74	1.171	334.22	-1000000	-1000000	-1000000	-1000000	
6.120	0.1119	120.86	1.171	334.36	-1000000	-1000000	-1000000	-1000000	
6.140	0.1120	123.54	1.172	334.61	-1000000	-1000000	-1000000	-1000000	
6.160	0.1120	124.53	1.172	334.45	-1000000	-1000000	-1000000	-1000000	
6.180	0.1121	123.54	1.172	334.70	-1000000	-1000000	-1000000	-1000000	
6.200	0.1121	121.05	1.172	334.82	-1000000	-1000000	-1000000	-1000000	
6.220	0.1122	117.58	1.172	335.03	-1000000	-1000000	-1000000	-1000000	
6.240	0.1123	113.39	1.172	335.62	-1000000	-1000000	-1000000	-1000000	
6.260	0.1123	109.46	1.172	336.09	-1000000	-1000000	-1000000	-1000000	
6.280	0.1124	106.07	1.173	336.29	-1000000	-1000000	-1000000	-1000000	
6.300	0.1126	104.25	1.173	336.53	-1000000	-1000000	-1000000	-1000000	
6.320	0.1126	103.71	1.173	336.55	-1000000	-1000000	-1000000	-1000000	
6.340	0.1127	104.34	1.174	336.73	-1000000	-1000000	-1000000	-1000000	
6.360	0.1128	106.27	1.174	337.16	-1000000	-1000000	-1000000	-1000000	
6.380	0.1129	109.29	1.175	337.29	-1000000	-1000000	-1000000	-1000000	
6.400	0.1130	112.71	1.175	337.53	-1000000	-1000000	-1000000	-1000000	
6.420	0.1131	115.50	1.176	337.62	-1000000	-1000000	-1000000	-1000000	
6.440	0.1131	116.75	1.176	337.77	-1000000	-1000000	-1000000	-1000000	
6.460	0.1132	116.86	1.176	337.87	-1000000	-1000000	-1000000	-1000000	
6.480	0.1132	116.84	1.176	338.29	-1000000	-1000000	-1000000	-1000000	
6.500	0.1133	116.82	1.177	338.72	-1000000	-1000000	-1000000	-1000000	
6.520	0.1134	116.76	1.177	338.74	-1000000	-1000000	-1000000	-1000000	
6.540	0.1134	116.72	1.177	338.50	-1000000	-1000000	-1000000	-1000000	
6.560	0.1135	117.22	1.177	338.92	-1000000	-1000000	-1000000	-1000000	
6.580	0.1135	118.14	1.178	339.55	-1000000	-1000000	-1000000	-1000000	
6.600	0.1136	118.48	1.178	339.96	-1000000	-1000000	-1000000	-1000000	
6.620	0.1136	118.12	1.178	339.73	-1000000	-1000000	-1000000	-1000000	
6.640	0.1137	117.41	1.178	339.57	-1000000	-1000000	-1000000	-1000000	
6.660	0.1137	116.60	1.178	339.95	-1000000	-1000000	-1000000	-1000000	
6.680	0.1138	115.82	1.179	340.16	-1000000	-1000000	-1000000	-1000000	
6.700	0.1139	115.56	1.179	340.19	-1000000	-1000000	-1000000	-1000000	
6.720	0.1140	116.15	1.179	340.17	-1000000	-1000000	-1000000	-1000000	
6.740	0.1140	117.21	1.179	340.29	-1000000	-1000000	-1000000	-1000000	
6.760	0.1140	118.27	1.180	340.63	-1000000	-1000000	-1000000	-1000000	
6.780	0.1141	118.08	1.180	340.98	-1000000	-1000000	-1000000	-1000000	
6.800	0.1141	117.08	1.180	341.19	-1000000	-1000000	-1000000	-1000000	
6.820	0.1142	116.51	1.180	341.31	-1000000	-1000000	-1000000	-1000000	
6.840	0.1143	115.90	1.181	341.28	-1000000	-1000000	-1000000	-1000000	
6.860	0.1143	115.39	1.181	341.39	-1000000	-1000000	-1000000	-1000000	
6.880	0.1144	115.23	1.181	341.78	-1000000	-1000000	-1000000	-1000000	
6.900	0.1144	115.25	1.181	341.94	-1000000	-1000000	-1000000	-1000000	
6.920	0.1145	115.34	1.182	342.23	-1000000	-1000000	-1000000	-1000000	
6.940	0.1146	115.37	1.182	342.38	-1000000	-1000000	-1000000	-1000000	
6.960	0.1146	115.31	1.182	342.31	-1000000	-1000000	-1000000	-1000000	
6.980	0.1147	115.21	1.182	342.50	-1000000	-1000000	-1000000	-1000000	
7.000	0.1148	115.15	1.183	342.71	-1000000	-1000000	-1000000	-1000000	
7.020	0.1149	115.25	1.183	342.86	-1000000	-1000000	-1000000	-1000000	
7.040	0.1150	115.17	1.183	343.13	-1000000	-1000000	-1000000	-1000000	
7.060	0.1150	115.10	1.184	343.80	-1000000	-1000000	-1000000	-1000000	
7.080	0.1151	114.72	1.184	344.11	-1000000	-1000000	-1000000	-1000000	
7.100	0.1152	113.54	1.184	344.35	-1000000	-1000000	-1000000	-1000000	
7.120	0.1152	111.96	1.184	344.77	-1000000	-1000000	-1000000	-1000000	
7.140	0.1153	110.79	1.184	344.99	-1000000	-1000000	-1000000	-1000000	
7.160	0.1154	110.57	1.185	344.98	-1000000	-1000000	-1000000	-1000000	
7.180	0.1154	111.38	1.185	345.14	-1000000	-1000000	-1000000	-1000000	
7.200	0.1155	113.29	1.186	345.58	-1000000	-1000000	-1000000	-1000000	
7.220	0.1156	115.73	1.186	345.82	-1000000	-1000000	-1000000	-1000000	
7.240	0.1157	117.74	1.186	345.64	-1000000	-1000000	-1000000	-1000000	
7.260	0.1157	119.50	1.187	345.44	-1000000	-1000000	-1000000	-1000000	
7.280	0.1157	121.09	1.187	345.37	-1000000	-1000000	-1000000	-1000000	
7.300	0.1157	122.03	1.187	345.45	-1000000	-1000000	-1000000	-1000000	
7.320	0.1157	122.69	1.187	345.95	-1000000	-1000000	-1000000	-1000000	
7.340	0.1158	122.56	1.187	346.53	-1000000	-1000000	-1000000	-1000000	
7.360	0.1159	121.45	1.188	346.70	-1000000	-1000000	-1000000	-1000000	
7.380	0.1160	119.09	1.188	346.73	-1000000	-1000000	-1000000	-1000000	
7.400	0.1161	115.69	1.188	347.06	-1000000	-1000000	-1000000	-1000000	
7.420	0.1161	112.22	1.188	347.17	-1000000	-1000000	-1000000	-1000000	
7.440	0.1162	109.80	1.188	347.22	-1000000	-1000000	-1000000	-1000000	
7.460	0.1163	109.33	1.188	347.60	-1000000	-1000000	-1000000	-1000000	
7.480	0.1163	111.11	1.189	348.01	-1000000	-1000000	-1000000	-1000000	
7.500	0.1163	114.29	1.189	348.32	-1000000	-1000000	-1000000	-1000000	
7.520	0.1164	117.33	1.190	348.09	-1000000	-1000000	-1000000	-1000000	
7.540	0.1165	119.32	1.190	348.09	-1000000	-1000000	-1000000	-1000000	
7.560	0.1166	119.73	1.190	348.39	-1000000	-1000000	-1000000	-1000000	
7.580	0.1167	118.54	1.190	348.70	-1000000	-1000000	-1000000	-1000000	
7.600	0.1167	116.39	1.190	349.16	-1000000	-1000000	-1000000	-1000000	
7.620	0.1167	114.03	1.191	349.27	-1000000	-1000000	-1000000	-1000000	
7.640	0.1168	112.38	1.191	349.42	-1000000	-1000000	-1000000	-1000000	
7.660	0.1169	112.35	1.191	349.85	-1000000	-1000000	-1000000	-1000000	
7.680	0.1170	113.67	1.191	349.88	-1000000	-1000000	-1000000	-1000000	
7.700	0.1170	115.58	1.192	350.03	-1000000	-1000000	-1000000	-1000000	
7.720	0.1171	118.00	1.192	350.24	-1000000	-1000000	-1000000	-1000000	
7.740	0.1171	120.66	1.192	350.06	-1000000	-1000000	-1000000	-1000000	
7.760	0.1171	122.69	1.192	349.93	-1000000	-1000000	-1000000	-1000000	
7.780	0.1171	124.03	1.193	349.91	-1000000	-1000000	-1000000	-1000000	
7.800	0.1171	124.99	1.193	350.08	-1000000	-1000000	-1000000	-1000000	
7.820	0.1171	125.86	1.193	350.09	-1000000	-1000000	-1000000	-1000000	
7.840	0.1171	126.51	1.193	350.17	-1000000	-1000000	-1000000	-1000000	
7.860	0.1171	127.29	1.193	350.42	-1000000	-1000000	-1000000	-1000000	
7.880	0.1172	128.33	1.193	350.63	-1000000	-1000000	-1000000	-1000000	
7.900	0.1172	130.14	1.194	350.83	-1000000	-1000000	-1000000	-1000000	
7.920	0.1172	132.06	1.194	350.82	-1000000	-1000000	-1000000	-1000000	
7.940	0.1172	133.76	1.194	350.74	-1000000	-1000000	-1000000	-1000000	
7.960	0.1171	135.45	1.194	350.85	-1000000	-1000000	-1000000	-1000000	
7.980	0.1171	137.02	1.194	350.99	-1000000	-1000000	-1000000	-1000000	
8.000	0.1171	138.34	1.194	351.10	-1000000	-1000000	-1000000	-1000000	
8.020	0.1171	139.61	1.194	350.87	-1000000	-1000000	-1000000	-1000000	
8.040	0.1171	140.84	1.194	350.75	-1000000	-1000000	-1000000	-1000000	
8.060	0.1171	141.81	1.194	350.88	-1000000	-1000000	-1000000	-1000000	
8.080	0.1171	142.55	1.193	351.00	-1000000	-1000000	-1000000	-1000000	
8.100	0.1170	143.32	1.193	350.72	-1000000	-1000000	-1000000	-1000000	
8.120	0.1170	144.13	1.193	350.80	-1000000	-1000000	-1000000	-1000000	
8.140	0.1170	144.85	1.193	350.87	-1000000	-1000000	-1000000	-1000000	
8.160	0.1169	145.36	1.193	350.61	-1000000	-1000000	-1000000	-1000000	
8.180	0.1169	146.26	1.193	350.53	-1000000	-1000000	-1000000	-1000000	
8.200	0.1169	146.98	1.193	350.50	-1000000	-1000000	-1000000	-1000000	
8.220	0.1169	147.21	1.192	350.53	-1000000	-1000000	-1000000	-1000000	
8.240	0.1169	147.85	1.192	350.58	-1000000	-1000000	-1000000	-1000000	
8.260	0.1169	148.46	1.192	350.84	-1000000	-1000000	-1000000	-1000000	
8.280	0.1168	148.71	1.192	350.87	-1000000	-1000000	-1000000	-1000000	
8.300	0.1168	148.81	1.191	350.80	-1000000	-1000000	-1000000	-1000000	
8.320	0.1167	148.82	1.191	350.74	-1000000	-1000000	-1000000	-1000000	
8.340	0.1167	148.09	1.191	350.51	-1000000	-1000000	-1000000	-1000000	
8.360	0.1167	147.35	1.191	350.42	-1000000	-1000000	-1000000	-1000000	
8.380	0.1167	146.86	1.191	350.53	-1000000	-1000000	-1000000	-1000000	
8.400	0.1167	146.04	1.191	350.51	-1000000	-1000000	-1000000	-1000000	
8.420	0.1167	145.51	1.190	350.25	-1000000	-1000000	-1000000	-1000000	
8.440	0.1166	145.27	1.190	350.15	-1000000	-1000000	-1000000	-1000000	
8.460	0.1166	144.60	1.190	350.08	-1000000	-1000000	-1000000	-1000000	
8.480	0.1165	143.95	1.190	350.27	-1000000	-1000000	-1000000	-1000000	
8.500	0.1165	143.49	1.190	350.64	-1000000	-1000000	-1000000	-1000000	
8.520	0.1165	142.67	1.190	350.63	-1000000	-1000000	-1000000	-1000000	
8.540	0.1165	141.96	1.190	350.47	-1000000	-1000000	-1000000	-1000000	
8.560	0.1165	141.19	1.190	350.36	-1000000	-1000000	-1000000	-1000000	
8.580	0.1165	140.58	1.189	350.20	-1000000	-1000000	-1000000	-1000000	
8.600	0.1165	140.44	1.189	350.12	-1000000	-1000000	-1000000	-1000000	
8.620	0.1164	140.36	1.189	350.07	-1000000	-1000000	-1000000	-1000000	
8.640	0.1164	140.34	1.189	350.07	-1000000	-1000000	-1000000	-1000000	
8.660	0.1163	140.36	1.189	350.39	-1000000	-1000000	-1000000	-1000000	
8.680	0.1162	140.42	1.189	350.61	-1000000	-1000000	-1000000	-1000000	
8.700	0.1162	140.31	1.189	350.46	-1000000	-1000000	-1000000	-1000000	
8.720	0.1163	140.34	1.188	350.34	-1000000	-1000000	-1000000	-1000000	
8.740	0.1163	140.32	1.188	350.63	-1000000	-1000000	-1000000	-1000000	
8.760	0.1163	140.37	1.188	350.61	-1000000	-1000000	-1000000	-1000000	
8.780	0.1163	140.43	1.188	350.25	-1000000	-1000000	-1000000	-1000000	
8.800	0.1162	140.28	1.188	350.07	-1000000	-1000000	-1000000	-1000000	
8.820	0.1161	140.29	1.188	350.26	-1000000	-1000000	-1000000	-1000000	
8.840	0.1161	140.46	1.188	349.96	-1000000	-1000000	-1000000	-1000000	
8.860	0.1161	140.52	1.188	349.96	-1000000	-1000000	-1000000	-1000000	
8.880	0.1161	140.54	1.188	349.92	-1000000	-1000000	-1000000	-1000000	
8.900	0.1161	140.56	1.188	349.89	-1000000	-1000000	-1000000	-1000000	
8.920	0.1161	140.33	1.188	349.76	-1000000	-1000000	-1000000	-1000000	
8.940	0.1161	140.13	1.188	349.70	-1000000	-1000000	-1000000	-1000000	
8.960	0.1160	140.19	1.188	349.85	-1000000	-1000000	-1000000	-1000000	
8.980	0.1160	140.42	1.188	350.25	-1000000	-1000000	-1000000	-1000000	
9.000	0.1159	140.06	1.187	350.36	-1000000	-1000000	-1000000	-1000000	
9.020	0.1158	139.19	1.187	350.09	-1000000	-1000000	-1000000	-1000000	
9.040	0.1158	138.81	1.187	349.89	-1000000	-1000000	-1000000	-1000000	
9.060	0.1158	138.79	1.187	349.92	-1000000	-1000000	-1000000	-1000000	
9.080	0.1159	138.77	1.187	350.09	-1000000	-1000000	-1000000	-1000000	
9.100	0.1159	138.41	1.187	349.88	-1000000	-1000000	-1000000	-1000000	
9.120	0.1158	137.42	1.187	349.62	-1000000	-1000000	-1000000	-1000000	
9.140	0.1158	136.72	1.187	349.63	-1000000	-1000000	-1000000	-1000000	
9.160	0.1158	136.14	1.187	349.54	-1000000	-1000000	-1000000	-1000000	
9.180	0.1158	135.47	1.187	349.63	-1000000	-1000000	-1000000	-1000000	
9.200	0.1158	134.46	1.187	349.84	-1000000	-1000000	-1000000	-1000000	
9.220	0.1158	133.34	1.187	350.06	-1000000	-1000000	-1000000	-1000000	
9.240	0.1158	131.81	1.187	350.26	-1000000	-1000000	-1000000	-1000000	
9.260	0.1158	129.55	1.187	350.12	-1000000	-1000000	-1000000	-1000000	
9.280	0.1158	127.14	1.187	350.22	-1000000	-1000000	-1000000	-1000000	
9.300	0.1158	124.27	1.187	350.14	-1000000	-1000000	-1000000	-1000000	
9.320	0.1158	121.09	1.187	350.03	-1000000	-1000000	-1000000	-1000000	
9.340	0.1158	118.40	1.187	350.06	-1000000	-1000000	-1000000	-1000000	
9.360	0.1159	116.28	1.187	350.14	-1000000	-1000000	-1000000	-1000000	
9.380	0.1159	115.32	1.187	350.28	-1000000	-1000000	-1000000	-1000000	
9.400	0.1159	115.19	1.187	350.45	-1000000	-1000000	-1000000	-1000000	
9.420	0.1159	115.15	1.188	350.56	-1000000	-1000000	-1000000	-1000000	
9.440	0.1158	115.70	1.188	350.80	-1000000	-1000000	-1000000	-1000000	
9.460	0.1158	116.69	1.188	350.99	-1000000	-1000000	-1000000	-1000000	
9.480	0.1158	117.91	1.188	350.84	-1000000	-1000000	-1000000	-1000000	
9.500	0.1158	119.37	1.188	350.75	-1000000	-1000000	-1000000	-1000000	
9.520	0.1158	121.05	1.189	350.83	-1000000	-1000000	-1000000	-1000000	
9.540	0.1158	123.22	1.189	350.88	-1000000	-1000000	-1000000	-1000000	
9.560	0.1158	125.37	1.189	350.47	-1000000	-1000000	-1000000	-1000000	
9.580	0.1158	127.38	1.189	350.10	-1000000	-1000000	-1000000	-1000000	
9.600	0.1158	129.18	1.189	350.57	-1000000	-1000000	-1000000	-1000000	
9.620	0.1158	130.94	1.189	350.85	-1000000	-1000000	-1000000	-1000000	
9.640	0.1158	132.92	1.190	350.96	-1000000	-1000000	-1000000	-1000000	
9.660	0.1157	134.68	1.190	350.91	-1000000	-1000000	-1000000	-1000000	
9.680	0.1157	135.77	1.190	350.63	-1000000	-1000000	-1000000	-1000000	
9.700	0.1158	136.63	1.190	350.34	-1000000	-1000000	-1000000	-1000000	
9.720	0.1158	137.38	1.190	350.38	-1000000	-1000000	-1000000	-1000000	
9.740	0.1157	138.11	1.190	350.51	-1000000	-1000000	-1000000	-1000000	
9.760	0.1157	138.42	1.190	350.69	-1000000	-1000000	-1000000	-1000000	
9.780	0.1157	138.55	1.190	350.86	-1000000	-1000000	-1000000	-1000000	
9.800	0.1157	138.84	1.190	350.57	-1000000	-1000000	-1000000	-1000000	
9.820	0.1157	139.45	1.189	350.36	-1000000	-1000000	-1000000	-1000000	
9.840	0.1157	139.82	1.189	350.44	-1000000	-1000000	-1000000	-1000000	
9.860	0.1157	139.84	1.189	350.49	-1000000	-1000000	-1000000	-1000000	
9.880	0.1157	140.09	1.189	350.68	-1000000	-1000000	-1000000	-1000000	
9.900	0.1156	140.27	1.189	350.72	-1000000	-1000000	-1000000	-1000000	
9.920	0.1156	140.36	1.189	350.75	-1000000	-1000000	-1000000	-1000000	
9.940	0.1156	140.49	1.189	350.96	-1000000	-1000000	-1000000	-1000000	
9.960	0.1156	141.07	1.189	350.93	-1000000	-1000000	-1000000	-1000000	
9.980	0.1156	141.85	1.189	350.63	-1000000	-1000000	-1000000	-1000000	
10.00	0.1155	141.96	1.189	350.55	-1000000	-1000000	-1000000	-1000000	
10.02	0.1155	142.24	1.188	350.76	-1000000	-1000000	-1000000	-1000000	
10.04	0.1155	142.93	1.188	350.75	-1000000	-1000000	-1000000	-1000000	
10.06	0.1155	143.45	1.188	350.43	-1000000	-1000000	-1000000	-1000000	
10.08	0.1155	143.60	1.188	350.38	-1000000	-1000000	-1000000	-1000000	
10.10	0.1155	143.57	1.188	350.62	-1000000	-1000000	-1000000	-1000000	
10.12	0.1155	143.75	1.188	350.57	-1000000	-1000000	-1000000	-1000000	
10.14	0.1154	143.86	1.187	350.71	-1000000	-1000000	-1000000	-1000000	
10.16	0.1154	144.02	1.187	350.70	-1000000	-1000000	-1000000	-1000000	
10.18	0.1154	143.93	1.187	350.35	-1000000	-1000000	-1000000	-1000000	
10.20	0.1154	143.71	1.187	350.06	-1000000	-1000000	-1000000	-1000000	
10.22	0.1153	143.56	1.187	350.33	-1000000	-1000000	-1000000	-1000000	
10.24	0.1153	143.54	1.187	350.49	-1000000	-1000000	-1000000	-1000000	
10.26	0.1153	143.71	1.187	350.50	-1000000	-1000000	-1000000	-1000000	
10.28	0.1153	143.80	1.187	350.39	-1000000	-1000000	-1000000	-1000000	
10.30	0.1152	143.60	1.186	350.52	-1000000	-1000000	-1000000	-1000000	
10.32	0.1152	143.55	1.186	350.44	-1000000	-1000000	-1000000	-1000000	
10.34	0.1151	143.63	1.186	350.44	-1000000	-1000000	-1000000	-1000000	
10.36	0.1151	142.99	1.186	350.41	-1000000	-1000000	-1000000	-1000000	
10.38	0.1151	142.07	1.186	350.14	-1000000	-1000000	-1000000	-1000000	
10.40	0.1151	141.15	1.186	350.04	-1000000	-1000000	-1000000	-1000000	
10.42	0.1151	140.49	1.186	350.41	-1000000	-1000000	-1000000	-1000000	
10.44	0.1151	139.50	1.186	350.50	-1000000	-1000000	-1000000	-1000000	
10.46	0.1151	138.44	1.185	350.37	-1000000	-1000000	-1000000	-1000000	
10.48	0.1151	137.52	1.186	350.62	-1000000	-1000000	-1000000	-1000000	
10.50	0.1150	136.87	1.186	350.97	-1000000	-1000000	-1000000	-1000000	
10.52	0.1150	136.07	1.186	350.72	-1000000	-1000000	-1000000	-1000000	
10.54	0.1150	135.47	1.185	350.48	-1000000	-1000000	-1000000	-1000000	
10.56	0.1150	134.81	1.185	350.63	-1000000	-1000000	-1000000	-1000000	
10.58	0.1150	134.02	1.185	350.34	-1000000	-1000000	-1000000	-1000000	
10.60	0.1150	133.65	1.185	349.70	-1000000	-1000000	-1000000	-1000000	
10.62	0.1150	133.22	1.185	349.73	-1000000	-1000000	-1000000	-1000000	
10.64	0.1150	132.68	1.185	350.18	-1000000	-1000000	-1000000	-1000000	
10.66	0.1149	132.44	1.185	350.47	-1000000	-1000000	-1000000	-1000000	
10.68	0.1149	132.16	1.185	350.21	-1000000	-1000000	-1000000	-1000000	
10.70	0.1149	132.01	1.185	350.12	-1000000	-1000000	-1000000	-1000000	
10.72	0.1148	132.21	1.185	350.11	-1000000	-1000000	-1000000	-1000000	
10.74	0.1148	132.09	1.185	350.12	-1000000	-1000000	-1000000	-1000000	
10.76	0.1149	131.93	1.185	350.15	-1000000	-1000000	-1000000	-1000000	
10.78	0.1150	131.92	1.185	350.33	-1000000	-1000000	-1000000	-1000000	
10.80	0.1149	132.06	1.185	350.38	-1000000	-1000000	-1000000	-1000000	
10.82	0.1149	132.15	1.185	350.19	-1000000	-1000000	-1000000	-1000000	
10.84	0.1148	132.04	1.185	349.97	-1000000	-1000000	-1000000	-1000000	
10.86	0.1147	131.43	1.185	349.99	-1000000	-1000000	-1000000	-1000000	
10.88	0.1147	130.77	1.185	350.37	-1000000	-1000000	-1000000	-1000000	
10.90	0.1147	130.42	1.185	350.70	-1000000	-1000000	-1000000	-1000000	
10.92	0.1148	130.18	1.186	350.82	-1000000	-1000000	-1000000	-1000000	
10.94	0.1149	130.03	1.185	350.60	-1000000	-1000000	-1000000	-1000000	
10.96	0.1148	130.19	1.185	350.38	-1000000	-1000000	-1000000	-1000000	
10.98	0.1148	130.34	1.185	350.35	-1000000	-1000000	-1000000	-1000000	
11.00	0.1148	130.33	1.186	350.30	-1000000	-1000000	-1000000	-1000000	
11.02	0.1148	130.21	1.186	350.15	-1000000	-1000000	-1000000	-1000000	
11.04	0.1147	130.24	1.185	349.99	-1000000	-1000000	-1000000	-1000000	
11.06	0.1146	130.64	1.185	349.99	-1000000	-1000000	-1000000	-1000000	
11.08	0.1147	131.61	1.185	350.05	-1000000	-1000000	-1000000	-1000000	
11.10	0.1148	132.21	1.185	350.20	-1000000	-1000000	-1000000	-1000000	
11.12	0.1148	132.75	1.186	350.53	-1000000	-1000000	-1000000	-1000000	
11.14	0.1148	133.77	1.186	350.60	-1000000	-1000000	-1000000	-1000000	
11.16	0.1147	134.97	1.186	350.61	-1000000	-1000000	-1000000	-1000000	
11.18	0.1147	135.97	1.186	350.46	-1000000	-1000000	-1000000	-1000000	
11.20	0.1146	136.71	1.186	350.43	-1000000	-1000000	-1000000	-1000000	
11.22	0.1146	137.40	1.186	350.72	-1000000	-1000000	-1000000	-1000000	
11.24	0.1147	138.21	1.185	350.84	-1000000	-1000000	-1000000	-1000000	
11.26	0.1147	139.31	1.185	350.60	-1000000	-1000000	-1000000	-1000000	
11.28	0.1147	140.26	1.185	350.16	-1000000	-1000000	-1000000	-1000000	
11.30	0.1146	141.19	1.186	349.91	-1000000	-1000000	-1000000	-1000000	
11.32	0.1146	141.90	1.186	349.99	-1000000	-1000000	-1000000	-1000000	
11.34	0.1146	142.61	1.186	350.22	-1000000	-1000000	-1000000	-1000000	
11.36	0.1146	143.32	1.183	350.26	-1000000	-1000000	-1000000	-1000000	
11.38	0.1145	143.56	1.169	350.30	-1000000	-1000000	-1000000	-1000000	
11.40	0.1145	143.68	1.157	350.37	-1000000	-1000000	-1000000	-1000000	
11.42	0.1145	143.84	1.153	350.29	-1000000	-1000000	-1000000	-1000000	
11.44	0.1145	143.79	1.153	350.13	-1000000	-1000000	-1000000	-1000000	
11.46	0.1145	143.33	1.153	350.00	-1000000	-1000000	-1000000	-1000000	
11.48	0.1145	142.44	1.153	350.15	-1000000	-1000000	-1000000	-1000000	
11.50	0.1144	141.32	1.152	350.28	-1000000	-1000000	-1000000	-1000000	
11.52	0.1144	140.23	1.152	349.96	-1000000	-1000000	-1000000	-1000000	
11.54	0.1144	138.91	1.153	349.80	-1000000	-1000000	-1000000	-1000000	
11.56	0.1144	137.78	1.153	349.91	-1000000	-1000000	-1000000	-1000000	
11.58	0.1144	137.23	1.152	349.99	-1000000	-1000000	-1000000	-1000000	
11.60	0.1144	137.05	1.152	349.96	-1000000	-1000000	-1000000	-1000000	
11.62	0.1144	136.95	1.152	349.74	-1000000	-1000000	-1000000	-1000000	
11.64	0.1144	137.56	1.153	349.76	-1000000	-1000000	-1000000	-1000000	
11.66	0.1144	139.16	1.153	349.60	-1000000	-1000000	-1000000	-1000000	
11.68	0.1144	141.35	1.153	349.70	-1000000	-1000000	-1000000	-1000000	
11.70	0.1144	144.37	1.153	349.96	-1000000	-1000000	-1000000	-1000000	
11.72	0.1144	148.55	1.154	350.09	-1000000	-1000000	-1000000	-1000000	
11.74	0.1144	154.55	1.155	350.02	-1000000	-1000000	-1000000	-1000000	
11.76	0.1146	163.01	1.156	349.96	-1000000	-1000000	-1000000	-1000000	
11.78	0.1148	174.06	1.157	349.92	-1000000	-1000000	-1000000	-1000000	
11.80	0.1150	188.59	1.158	349.88	-1000000	-1000000	-1000000	-1000000	
11.82	0.1152	206.62	1.159	349.98	-1000000	-1000000	-1000000	-1000000	
11.84	0.1155	228.32	1.160	350.06	-1000000	-1000000	-1000000	-1000000	
11.86	0.1158	254.60	1.161	349.71	-1000000	-1000000	-1000000	-1000000	
11.88	0.1161	286.07	1.163	349.70	-1000000	-1000000	-1000000	-1000000	
11.90	0.1164	322.48	1.165	350.06	-1000000	-1000000	-1000000	-1000000	
11.92	0.1167	363.70	1.167	350.27	-1000000	-1000000	-1000000	-1000000	
11.94	0.1172	409.07	1.169	350.66	-1000000	-1000000	-1000000	-1000000	
11.96	0.1176	457.70	1.171	351.06	-1000000	-1000000	-1000000	-1000000	
11.98	0.1180	509.23	1.173	350.92	-1000000	-1000000	-1000000	-1000000	
12.00	0.1184	564.16	1.175	350.56	-1000000	-1000000	-1000000	-1000000	
12.02	0.1188	622.39	1.177	350.46	-1000000	-1000000	-1000000	-1000000	
12.04	0.1193	683.69	1.180	350.40	-1000000	-1000000	-1000000	-1000000	
12.06	0.1197	748.28	1.183	350.58	-1000000	-1000000	-1000000	-1000000	
12.08	0.1202	815.52	1.185	350.67	-1000000	-1000000	-1000000	-1000000	
12.10	0.1206	886.00	1.188	350.75	-1000000	-1000000	-1000000	-1000000	
12.12	0.1212	959.44	1.191	350.92	-1000000	-1000000	-1000000	-1000000	
12.14	0.1217	1035.4	1.194	350.89	-1000000	-1000000	-1000000	-1000000	
12.16	0.1222	1113.7	1.198	350.88	-1000000	-1000000	-1000000	-1000000	
12.18	0.1227	1195.0	1.201	350.72	-1000000	-1000000	-1000000	-1000000	
12.20	0.1232	1279.1	1.204	350.41	-1000000	-1000000	-1000000	-1000000	
12.22	0.1238	1365.7	1.208	350.30	-1000000	-1000000	-1000000	-1000000	
12.24	0.1243	1455.0	1.212	350.19	-1000000	-1000000	-1000000	-1000000	
12.26	0.1250	1547.0	1.216	350.10	-1000000	-1000000	-1000000	-1000000	
12.28	0.1256	1640.9	1.220	349.92	-1000000	-1000000	-1000000	-1000000	
12.30	0.1262	1737.6	1.224	350.33	-1000000	-1000000	-1000000	-1000000	
12.32	0.1267	1836.9	1.228	350.63	-1000000	-1000000	-1000000	-1000000	
12.34	0.1273	1937.5	1.232	350.36	-1000000	-1000000	-1000000	-1000000	
12.36	0.1280	2040.1	1.237	349.89	-1000000	-1000000	-1000000	-1000000	
12.38	0.1286	2145.7	1.241	349.88	-1000000	-1000000	-1000000	-1000000	
12.40	0.1293	2253.9	1.246	350.07	-1000000	-1000000	-1000000	-1000000	
12.42	0.1299	2364.1	1.250	350.32	-1000000	-1000000	-1000000	-1000000	
12.44	0.1306	2476.4	1.255	350.17	-1000000	-1000000	-1000000	-1000000	
12.46	0.1314	2590.6	1.261	350.13	-1000000	-1000000	-1000000	-1000000	
12.48	0.1321	2706.4	1.266	350.01	-1000000	-1000000	-1000000	-1000000	
12.50	0.1328	2823.9	1.271	349.90	-1000000	-1000000	-1000000	-1000000	
12.52	0.1335	2943.4	1.277	350.11	-1000000	-1000000	-1000000	-1000000	
12.54	0.1343	3064.6	1.282	350.16	-1000000	-1000000	-1000000	-1000000	
12.56	0.1350	3187.4	1.288	349.94	-1000000	-1000000	-1000000	-1000000	
12.58	0.1357	3311.8	1.293	349.73	-1000000	-1000000	-1000000	-1000000	
12.60	0.1366	3437.8	1.299	349.71	-1000000	-1000000	-1000000	-1000000	
12.62	0.1374	3566.0	1.305	349.93	-1000000	-1000000	-1000000	-1000000	
12.64	0.1383	3696.3	1.311	350.19	-1000000	-1000000	-1000000	-1000000	
12.66	0.1391	3828.7	1.317	350.33	-1000000	-1000000	-1000000	-1000000	
12.68	0.1399	3963.5	1.324	350.24	-1000000	-1000000	-1000000	-1000000	
12.70	0.1406	4100.7	1.331	349.93	-1000000	-1000000	-1000000	-1000000	
12.72	0.1414	4240.1	1.337	349.85	-1000000	-1000000	-1000000	-1000000	
12.74	0.1422	4380.8	1.344	350.04	-1000000	-1000000	-1000000	-1000000	
12.76	0.1431	4523.1	1.351	349.94	-1000000	-1000000	-1000000	-1000000	
12.78	0.1441	4667.6	1.358	349.94	-1000000	-1000000	-1000000	-1000000	
12.80	0.1450	4813.9	1.365	350.09	-1000000	-1000000	-1000000	-1000000	
12.82	0.1458	4961.7	1.372	350.03	-1000000	-1000000	-1000000	-1000000	
12.84	0.1467	5111.5	1.379	349.97	-1000000	-1000000	-1000000	-1000000	
12.86	0.1476	5263.5	1.387	349.97	-1000000	-1000000	-1000000	-1000000	
12.88	0.1485	5417.5	1.394	349.91	-1000000	-1000000	-1000000	-1000000	
12.90	0.1495	5573.9	1.402	349.92	-1000000	-1000000	-1000000	-1000000	
12.92	0.1504	5732.2	1.410	350.00	-1000000	-1000000	-1000000	-1000000	
12.94	0.1513	5891.5	1.417	349.93	-1000000	-1000000	-1000000	-1000000	
12.96	0.1522	6051.5	1.425	349.89	-1000000	-1000000	-1000000	-1000000	
12.98	0.1532	6212.0	1.434	349.88	-1000000	-1000000	-1000000	-1000000	
13.00	0.1542	6373.2	1.442	349.70	-1000000	-1000000	-1000000	-1000000	
13.02	0.1552	6535.4	1.450	349.42	-1000000	-1000000	-1000000	-1000000	
13.04	0.1561	6698.5	1.459	349.53	-1000000	-1000000	-1000000	-1000000	
13.06	0.1571	6863.2	1.467	349.74	-1000000	-1000000	-1000000	-1000000	
13.08	0.1580	7029.5	1.476	349.95	-1000000	-1000000	-1000000	-1000000	
13.10	0.1591	7196.3	1.485	349.74	-1000000	-1000000	-1000000	-1000000	
13.12	0.1602	7363.0	1.494	349.87	-1000000	-1000000	-1000000	-1000000	
13.14	0.1614	7530.2	1.503	349.91	-1000000	-1000000	-1000000	-1000000	
13.16	0.1624	7698.8	1.512	350.11	-1000000	-1000000	-1000000	-1000000	
13.18	0.1635	7868.4	1.522	349.94	-1000000	-1000000	-1000000	-1000000	
13.20	0.1646	8038.9	1.531	349.60	-1000000	-1000000	-1000000	-1000000	
13.22	0.1658	8211.0	1.541	349.56	-1000000	-1000000	-1000000	-1000000	
13.24	0.1670	8384.4	1.551	349.77	-1000000	-1000000	-1000000	-1000000	
13.26	0.1682	8558.6	1.561	349.89	-1000000	-1000000	-1000000	-1000000	
13.28	0.1695	8733.7	1.571	350.15	-1000000	-1000000	-1000000	-1000000	
13.30	0.1709	8909.8	1.581	350.43	-1000000	-1000000	-1000000	-1000000	
13.32	0.1723	9086.6	1.591	350.27	-1000000	-1000000	-1000000	-1000000	
13.34	0.1737	9264.0	1.601	350.09	-1000000	-1000000	-1000000	-1000000	
13.36	0.1752	9441.8	1.612	350.03	-1000000	-1000000	-1000000	-1000000	
13.38	0.1768	9619.2	1.622	349.88	-1000000	-1000000	-1000000	-1000000	
13.40	0.1785	9796.1	1.633	349.72	-1000000	-1000000	-1000000	-1000000	
13.42	0.1804	9972.6	1.643	349.72	-1000000	-1000000	-1000000	-1000000	
13.44	0.1826	10148	1.654	349.56	-1000000	-1000000	-1000000	-1000000	
13.46	0.1849	10322	1.665	349.58	-1000000	-1000000	-1000000	-1000000	
13.48	0.1875	10493	1.677	349.53	-1000000	-1000000	-1000000	-1000000	
13.50	0.1905	10660	1.688	349.79	-1000000	-1000000	-1000000	-1000000	
13.52	0.1943	10820	1.700	349.77	-1000000	-1000000	-1000000	-1000000	
13.54	0.1991	10971	1.711	349.76	-1000000	-1000000	-1000000	-1000000	
13.56	0.2057	11110	1.723	349.68	-1000000	-1000000	-1000000	-1000000	
13.58	0.2148	11230	1.734	349.72	-1000000	-1000000	-1000000	-1000000	
13.60	0.2258	11322	1.746	349.81	-1000000	-1000000	-1000000	-1000000	
13.62	0.2367	11382	1.758	349.93	-1000000	-1000000	-1000000	-1000000	
13.64	0.2470	11412	1.770	350.00	-1000000	-1000000	-1000000	-1000000	
13.66	0.2569	11423	1.783	350.06	-1000000	-1000000	-1000000	-1000000	
13.68	0.2667	11425	1.795	350.29	-1000000	-1000000	-1000000	-1000000	
13.70	0.2766	11429	1.807	350.33	-1000000	-1000000	-1000000	-1000000	
13.72	0.2865	11442	1.820	350.29	-1000000	-1000000	-1000000	-1000000	
13.74	0.2963	11464	1.833	350.22	-1000000	-1000000	-1000000	-1000000	
13.76	0.3058	11489	1.845	350.14	-1000000	-1000000	-1000000	-1000000	
13.78	0.3151	11513	1.858	350.09	-1000000	-1000000	-1000000	-1000000	
13.80	0.3241	11535	1.871	349.86	-1000000	-1000000	-1000000	-1000000	
13.82	0.3329	11557	1.885	349.84	-1000000	-1000000	-1000000	-1000000	
13.84	0.3415	11579	1.898	349.94	-1000000	-1000000	-1000000	-1000000	
13.86	0.3501	11600	1.911	349.99	-1000000	-1000000	-1000000	-1000000	
13.88	0.3586	11621	1.925	349.80	-1000000	-1000000	-1000000	-1000000	
13.90	0.3671	11642	1.939	349.57	-1000000	-1000000	-1000000	-1000000	
13.92	0.3757	11662	1.953	349.72	-1000000	-1000000	-1000000	-1000000	
13.94	0.3842	11682	1.966	350.06	-1000000	-1000000	-1000000	-1000000	
13.96	0.3928	11702	1.980	350.36	-1000000	-1000000	-1000000	-1000000	
13.98	0.4015	11721	1.994	350.24	-1000000	-1000000	-1000000	-1000000	
14.00	0.4100	11739	2.009	349.99	-1000000	-1000000	-1000000	-1000000	
14.02	0.4183	11756	2.023	349.88	-1000000	-1000000	-1000000	-1000000	
14.04	0.4266	11774	2.038	350.45	-1000000	-1000000	-1000000	-1000000	
14.06	0.4350	11791	2.052	350.57	-1000000	-1000000	-1000000	-1000000	
14.08	0.4435	11808	2.067	350.34	-1000000	-1000000	-1000000	-1000000	
14.10	0.4521	11825	2.082	350.14	-1000000	-1000000	-1000000	-1000000	
14.12	0.4609	11844	2.097	350.29	-1000000	-1000000	-1000000	-1000000	
14.14	0.4699	11862	2.112	350.59	-1000000	-1000000	-1000000	-1000000	
14.16	0.4791	11881	2.127	350.67	-1000000	-1000000	-1000000	-1000000	
14.18	0.4885	11899	2.143	350.54	-1000000	-1000000	-1000000	-1000000	
14.20	0.4982	11917	2.158	350.46	-1000000	-1000000	-1000000	-1000000	
14.22	0.5081	11935	2.174	350.27	-1000000	-1000000	-1000000	-1000000	
14.24	0.5182	11953	2.190	350.29	-1000000	-1000000	-1000000	-1000000	
14.26	0.5284	11971	2.205	350.39	-1000000	-1000000	-1000000	-1000000	
14.28	0.5388	11989	2.221	350.58	-1000000	-1000000	-1000000	-1000000	
14.30	0.5495	12006	2.237	350.70	-1000000	-1000000	-1000000	-1000000	
14.32	0.5604	12024	2.253	351.01	-1000000	-1000000	-1000000	-1000000	
14.34	0.5713	12041	2.270	351.16	-1000000	-1000000	-1000000	-1000000	
14.36	0.5820	12058	2.286	351.06	-1000000	-1000000	-1000000	-1000000	
14.38	0.5928	12074	2.303	350.78	-1000000	-1000000	-1000000	-1000000	
14.40	0.6036	12089	2.320	350.52	-1000000	-1000000	-1000000	-1000000	
14.42	0.6146	12104	2.336	350.57	-1000000	-1000000	-1000000	-1000000	
14.44	0.6258	12119	2.353	350.96	-1000000	-1000000	-1000000	-1000000	
14.46	0.6371	12134	2.370	350.95	-1000000	-1000000	-1000000	-1000000	
14.48	0.6485	12150	2.388	351.03	-1000000	-1000000	-1000000	-1000000	
14.50	0.6599	12166	2.405	351.17	-1000000	-1000000	-1000000	-1000000	
14.52	0.6712	12181	2.422	351.00	-1000000	-1000000	-1000000	-1000000	
14.54	0.6825	12195	2.440	350.87	-1000000	-1000000	-1000000	-1000000	
14.56	0.6939	12208	2.457	350.77	-1000000	-1000000	-1000000	-1000000	
14.58	0.7052	12222	2.475	350.60	-1000000	-1000000	-1000000	-1000000	
14.60	0.7166	12235	2.493	350.40	-1000000	-1000000	-1000000	-1000000	
14.62	0.7280	12248	2.511	350.40	-1000000	-1000000	-1000000	-1000000	
14.64	0.7395	12262	2.529	350.56	-1000000	-1000000	-1000000	-1000000	
14.66	0.7510	12275	2.547	350.93	-1000000	-1000000	-1000000	-1000000	
14.68	0.7624	12287	2.566	351.18	-1000000	-1000000	-1000000	-1000000	
14.70	0.7739	12300	2.584	351.13	-1000000	-1000000	-1000000	-1000000	
14.72	0.7853	12313	2.603	350.90	-1000000	-1000000	-1000000	-1000000	
14.74	0.7967	12325	2.622	351.03	-1000000	-1000000	-1000000	-1000000	
14.76	0.8082	12338	2.640	351.18	-1000000	-1000000	-1000000	-1000000	
14.78	0.8198	12350	2.659	351.03	-1000000	-1000000	-1000000	-1000000	
14.80	0.8315	12363	2.678	350.93	-1000000	-1000000	-1000000	-1000000	
14.82	0.8433	12375	2.697	351.18	-1000000	-1000000	-1000000	-1000000	
14.84	0.8552	12388	2.717	351.02	-1000000	-1000000	-1000000	-1000000	
14.86	0.8670	12400	2.736	350.97	-1000000	-1000000	-1000000	-1000000	
14.88	0.8790	12412	2.756	351.07	-1000000	-1000000	-1000000	-1000000	
14.90	0.8913	12424	2.776	350.79	-1000000	-1000000	-1000000	-1000000	
14.92	0.9036	12437	2.795	350.71	-1000000	-1000000	-1000000	-1000000	
14.94	0.9161	12449	2.815	350.82	-1000000	-1000000	-1000000	-1000000	
14.96	0.9287	12461	2.835	350.93	-1000000	-1000000	-1000000	-1000000	
14.98	0.9415	12473	2.855	351.21	-1000000	-1000000	-1000000	-1000000	
15.00	0.9545	12486	2.876	351.28	-1000000	-1000000	-1000000	-1000000	
15.02	0.9676	12498	2.896	351.65	-1000000	-1000000	-1000000	-1000000	
15.04	0.9808	12509	2.916	351.79	-1000000	-1000000	-1000000	-1000000	
15.06	0.9941	12521	2.937	351.48	-1000000	-1000000	-1000000	-1000000	
15.08	1.008	12532	2.958	351.29	-1000000	-1000000	-1000000	-1000000	
15.10	1.021	12543	2.979	351.41	-1000000	-1000000	-1000000	-1000000	
15.12	1.035	12554	3.000	351.74	-1000000	-1000000	-1000000	-1000000	
15.14	1.049	12565	3.021	351.97	-1000000	-1000000	-1000000	-1000000	
15.16	1.063	12575	3.042	351.86	-1000000	-1000000	-1000000	-1000000	
15.18	1.078	12586	3.063	351.74	-1000000	-1000000	-1000000	-1000000	
15.20	1.092	12596	3.085	351.90	-1000000	-1000000	-1000000	-1000000	
15.22	1.106	12606	3.107	351.90	-1000000	-1000000	-1000000	-1000000	
15.24	1.121	12617	3.128	351.81	-1000000	-1000000	-1000000	-1000000	
15.26	1.136	12626	3.150	351.69	-1000000	-1000000	-1000000	-1000000	
15.28	1.151	12636	3.172	351.70	-1000000	-1000000	-1000000	-1000000	
15.30	1.166	12646	3.194	351.71	-1000000	-1000000	-1000000	-1000000	
15.32	1.181	12655	3.216	351.83	-1000000	-1000000	-1000000	-1000000	
15.34	1.196	12664	3.238	351.73	-1000000	-1000000	-1000000	-1000000	
15.36	1.212	12674	3.261	351.46	-1000000	-1000000	-1000000	-1000000	
15.38	1.227	12683	3.284	351.61	-1000000	-1000000	-1000000	-1000000	
15.40	1.243	12691	3.306	351.98	-1000000	-1000000	-1000000	-1000000	
15.42	1.259	12699	3.329	352.06	-1000000	-1000000	-1000000	-1000000	
15.44	1.274	12707	3.352	352.09	-1000000	-1000000	-1000000	-1000000	
15.46	1.290	12715	3.375	352.27	-1000000	-1000000	-1000000	-1000000	
15.48	1.307	12723	3.398	352.25	-1000000	-1000000	-1000000	-1000000	
15.50	1.323	12731	3.422	351.99	-1000000	-1000000	-1000000	-1000000	
15.52	1.339	12739	3.445	352.08	-1000000	-1000000	-1000000	-1000000	
15.54	1.356	12746	3.468	352.26	-1000000	-1000000	-1000000	-1000000	
15.56	1.373	12754	3.492	352.51	-1000000	-1000000	-1000000	-1000000	
15.58	1.390	12761	3.516	352.62	-1000000	-1000000	-1000000	-1000000	
15.60	1.407	12768	3.540	352.72	-1000000	-1000000	-1000000	-1000000	
15.62	1.424	12774	3.564	352.44	-1000000	-1000000	-1000000	-1000000	
15.64	1.441	12781	3.588	352.23	-1000000	-1000000	-1000000	-1000000	
15.66	1.459	12788	3.612	352.30	-1000000	-1000000	-1000000	-1000000	
15.68	1.477	12795	3.636	352.54	-1000000	-1000000	-1000000	-1000000	
15.70	1.495	12801	3.661	352.72	-1000000	-1000000	-1000000	-1000000	
15.72	1.513	12807	3.685	352.75	-1000000	-1000000	-1000000	-1000000	
15.74	1.531	12813	3.710	352.76	-1000000	-1000000	-1000000	-1000000	
15.76	1.549	12818	3.735	352.84	-1000000	-1000000	-1000000	-1000000	
15.78	1.568	12824	3.760	352.88	-1000000	-1000000	-1000000	-1000000	
15.80	1.586	12829	3.785	352.90	-1000000	-1000000	-1000000	-1000000	
15.82	1.605	12834	3.810	352.94	-1000000	-1000000	-1000000	-1000000	
15.84	1.624	12839	3.835	353.06	-1000000	-1000000	-1000000	-1000000	
15.86	1.644	12843	3.861	353.18	-1000000	-1000000	-1000000	-1000000	
15.88	1.663	12848	3.886	353.15	-1000000	-1000000	-1000000	-1000000	
15.90	1.683	12852	3.912	353.08	-1000000	-1000000	-1000000	-1000000	
15.92	1.703	12857	3.938	353.21	-1000000	-1000000	-1000000	-1000000	
15.94	1.723	12861	3.964	353.30	-1000000	-1000000	-1000000	-1000000	
15.96	1.744	12865	3.990	353.45	-1000000	-1000000	-1000000	-1000000	
15.98	1.764	12869	4.016	353.56	-1000000	-1000000	-1000000	-1000000	
16.00	1.785	12873	4.042	353.60	-1000000	-1000000	-1000000	-1000000	
16.02	1.806	12876	4.069	353.41	-1000000	-1000000	-1000000	-1000000	
16.04	1.828	12879	4.095	353.47	-1000000	-1000000	-1000000	-1000000	
16.06	1.849	12882	4.122	353.77	-1000000	-1000000	-1000000	-1000000	
16.08	1.871	12884	4.148	354.17	-1000000	-1000000	-1000000	-1000000	
16.10	1.893	12887	4.175	354.35	-1000000	-1000000	-1000000	-1000000	
16.12	1.916	12889	4.202	354.26	-1000000	-1000000	-1000000	-1000000	
16.14	1.938	12890	4.230	354.26	-1000000	-1000000	-1000000	-1000000	
16.16	1.961	12892	4.257	354.59	-1000000	-1000000	-1000000	-1000000	
16.18	1.984	12893	4.284	354.95	-1000000	-1000000	-1000000	-1000000	
16.20	2.007	12894	4.312	354.99	-1000000	-1000000	-1000000	-1000000	
16.22	2.031	12894	4.339	355.08	-1000000	-1000000	-1000000	-1000000	
16.24	2.055	12895	4.367	355.13	-1000000	-1000000	-1000000	-1000000	
16.26	2.079	12895	4.395	355.42	-1000000	-1000000	-1000000	-1000000	
16.28	2.103	12895	4.422	355.71	-1000000	-1000000	-1000000	-1000000	
16.30	2.128	12894	4.450	355.86	-1000000	-1000000	-1000000	-1000000	
16.32	2.152	12893	4.479	355.93	-1000000	-1000000	-1000000	-1000000	
16.34	2.177	12892	4.507	356.22	-1000000	-1000000	-1000000	-1000000	
16.36	2.203	12890	4.536	356.51	-1000000	-1000000	-1000000	-1000000	
16.38	2.228	12888	4.564	356.82	-1000000	-1000000	-1000000	-1000000	
16.40	2.254	12886	4.593	356.94	-1000000	-1000000	-1000000	-1000000	
16.42	2.280	12883	4.622	357.05	-1000000	-1000000	-1000000	-1000000	
16.44	2.307	12880	4.651	357.14	-1000000	-1000000	-1000000	-1000000	
16.46	2.333	12877	4.680	357.56	-1000000	-1000000	-1000000	-1000000	
16.48	2.360	12872	4.709	357.90	-1000000	-1000000	-1000000	-1000000	
16.50	2.388	12867	4.738	358.06	-1000000	-1000000	-1000000	-1000000	
16.52	2.415	12862	4.767	358.42	-1000000	-1000000	-1000000	-1000000	
16.54	2.443	12856	4.797	358.68	-1000000	-1000000	-1000000	-1000000	
16.56	2.471	12850	4.827	358.55	-1000000	-1000000	-1000000	-1000000	
16.58	2.499	12843	4.856	358.47	-1000000	-1000000	-1000000	-1000000	
16.60	2.527	12836	4.886	359.01	-1000000	-1000000	-1000000	-1000000	
16.62	2.556	12828	4.916	359.54	-1000000	-1000000	-1000000	-1000000	
16.64	2.585	12820	4.946	359.87	-1000000	-1000000	-1000000	-1000000	
16.66	2.615	12810	4.977	360.13	-1000000	-1000000	-1000000	-1000000	
16.68	2.644	12800	5.007	360.59	-1000000	-1000000	-1000000	-1000000	
16.70	2.674	12790	5.037	361.17	-1000000	-1000000	-1000000	-1000000	
16.72	2.704	12778	5.068	361.77	-1000000	-1000000	-1000000	-1000000	
16.74	2.734	12765	5.099	362.16	-1000000	-1000000	-1000000	-1000000	
16.76	2.765	12752	5.130	362.59	-1000000	-1000000	-1000000	-1000000	
16.78	2.796	12738	5.160	363.02	-1000000	-1000000	-1000000	-1000000	
16.80	2.827	12723	5.192	363.33	-1000000	-1000000	-1000000	-1000000	
16.82	2.858	12706	5.223	363.53	-1000000	-1000000	-1000000	-1000000	
16.84	2.890	12689	5.254	364.00	-1000000	-1000000	-1000000	-1000000	
16.86	2.921	12671	5.285	364.57	-1000000	-1000000	-1000000	-1000000	
16.88	2.953	12651	5.317	365.21	-1000000	-1000000	-1000000	-1000000	
16.90	2.986	12630	5.348	365.70	-1000000	-1000000	-1000000	-1000000	
16.92	3.018	12608	5.380	366.26	-1000000	-1000000	-1000000	-1000000	
16.94	3.051	12584	5.412	366.73	-1000000	-1000000	-1000000	-1000000	
16.96	3.084	12559	5.444	367.16	-1000000	-1000000	-1000000	-1000000	
16.98	3.117	12532	5.477	367.63	-1000000	-1000000	-1000000	-1000000	
17.00	3.150	12504	5.509	368.32	-1000000	-1000000	-1000000	-1000000	
17.02	3.184	12474	5.541	368.85	-1000000	-1000000	-1000000	-1000000	
17.04	3.218	12443	5.574	369.36	-1000000	-1000000	-1000000	-1000000	
17.06	3.252	12409	5.606	369.89	-1000000	-1000000	-1000000	-1000000	
17.08	3.286	12373	5.639	370.54	-1000000	-1000000	-1000000	-1000000	
17.10	3.321	12336	5.672	371.33	-1000000	-1000000	-1000000	-1000000	
17.12	3.356	12296	5.705	372.00	-1000000	-1000000	-1000000	-1000000	
17.14	3.391	12253	5.738	372.63	-1000000	-1000000	-1000000	-1000000	
17.16	3.426	12208	5.771	373.17	-1000000	-1000000	-1000000	-1000000	
17.18	3.462	12161	5.804	373.85	-1000000	-1000000	-1000000	-1000000	
17.20	3.498	12110	5.838	374.85	-1000000	-1000000	-1000000	-1000000	
17.22	3.534	12057	5.871	375.66	-1000000	-1000000	-1000000	-1000000	
17.24	3.570	12000	5.905	376.37	-1000000	-1000000	-1000000	-1000000	
17.26	3.607	11940	5.939	377.06	-1000000	-1000000	-1000000	-1000000	
17.28	3.644	11877	5.973	377.90	-1000000	-1000000	-1000000	-1000000	
17.30	3.682	11810	6.007	378.82	-1000000	-1000000	-1000000	-1000000	
17.32	3.719	11739	6.041	379.71	-1000000	-1000000	-1000000	-1000000	
17.34	3.758	11663	6.076	380.33	-1000000	-1000000	-1000000	-1000000	
17.36	3.796	11583	6.110	381.01	-1000000	-1000000	-1000000	-1000000	
17.38	3.835	11497	6.144	381.79	-1000000	-1000000	-1000000	-1000000	
17.40	3.874	11406	6.179	382.73	-1000000	-1000000	-1000000	-1000000	
17.42	3.914	11307	6.214	383.62	-1000000	-1000000	-1000000	-1000000	
17.44	3.953	11202	6.249	384.37	-1000000	-1000000	-1000000	-1000000	
17.46	3.987	11087	6.284	384.93	-1000000	-1000000	-1000000	-1000000	
17.48	4.012	10964	6.319	385.26	-1000000	-1000000	-1000000	-1000000	
17.50	4.028	10832	6.353	385.34	-1000000	-1000000	-1000000	-1000000	
17.52	4.036	10695	6.382	385.21	-1000000	-1000000	-1000000	-1000000	
17.54	4.041	10562	6.403	384.79	-1000000	-1000000	-1000000	-1000000	
17.56	4.045	10440	6.414	384.27	-1000000	-1000000	-1000000	-1000000	
17.58	4.047	10335	6.419	383.77	-1000000	-1000000	-1000000	-1000000	
17.60	4.049	10250	6.422	383.30	-1000000	-1000000	-1000000	-1000000	
17.62	4.050	10184	6.423	382.81	-1000000	-1000000	-1000000	-1000000	
17.64	4.051	10133	6.423	382.26	-1000000	-1000000	-1000000	-1000000	
17.66	4.052	10093	6.424	381.69	-1000000	-1000000	-1000000	-1000000	
17.68	4.053	10060	6.424	381.05	-1000000	-1000000	-1000000	-1000000	
17.70	4.053	10033	6.424	380.59	-1000000	-1000000	-1000000	-1000000	
17.72	4.054	10010	6.424	380.17	-1000000	-1000000	-1000000	-1000000	
17.74	4.054	9990.8	6.424	379.74	-1000000	-1000000	-1000000	-1000000	
17.76	4.055	9973.9	6.424	379.28	-1000000	-1000000	-1000000	-1000000	
17.78	4.055	9959.4	6.424	378.87	-1000000	-1000000	-1000000	-1000000	
17.80	4.056	9946.9	6.424	378.50	-1000000	-1000000	-1000000	-1000000	
17.82	4.056	9935.8	6.424	378.39	-1000000	-1000000	-1000000	-1000000	
17.84	4.056	9925.9	6.424	377.93	-1000000	-1000000	-1000000	-1000000	
17.86	4.057	9917.1	6.424	377.39	-1000000	-1000000	-1000000	-1000000	
17.88	4.057	9909.4	6.424	377.05	-1000000	-1000000	-1000000	-1000000	
17.90	4.057	9902.4	6.424	376.58	-1000000	-1000000	-1000000	-1000000	
17.92	4.057	9896.1	6.424	376.28	-1000000	-1000000	-1000000	-1000000	
17.94	4.058	9890.1	6.424	376.34	-1000000	-1000000	-1000000	-1000000	
17.96	4.058	9884.6	6.424	375.99	-1000000	-1000000	-1000000	-1000000	
17.98	4.058	9879.8	6.424	375.49	-1000000	-1000000	-1000000	-1000000	
18.00	4.058	9875.4	6.424	375.11	-1000000	-1000000	-1000000	-1000000	
18.02	4.058	9871.5	6.424	374.91	-1000000	-1000000	-1000000	-1000000	
18.04	4.058	9867.9	6.424	374.66	-1000000	-1000000	-1000000	-1000000	
18.06	4.059	9864.4	6.424	374.37	-1000000	-1000000	-1000000	-1000000	
18.08	4.059	9861.1	6.424	374.13	-1000000	-1000000	-1000000	-1000000	
18.10	4.059	9857.9	6.424	373.92	-1000000	-1000000	-1000000	-1000000	
18.12	4.059	9854.6	6.424	373.66	-1000000	-1000000	-1000000	-1000000	
18.14	4.059	9851.6	6.424	373.55	-1000000	-1000000	-1000000	-1000000	
18.16	4.059	9848.9	6.424	373.31	-1000000	-1000000	-1000000	-1000000	
18.18	4.059	9846.0	6.424	373.00	-1000000	-1000000	-1000000	-1000000	
18.20	4.059	9843.3	6.424	372.80	-1000000	-1000000	-1000000	-1000000	
18.22	4.059	9840.8	6.424	372.69	-1000000	-1000000	-1000000	-1000000	
18.24	4.060	9838.6	6.423	372.40	-1000000	-1000000	-1000000	-1000000	
18.26	4.060	9836.1	6.423	372.17	-1000000	-1000000	-1000000	-1000000	
18.28	4.060	9833.9	6.423	372.02	-1000000	-1000000	-1000000	-1000000	
18.30	4.060	9832.2	6.423	371.74	-1000000	-1000000	-1000000	-1000000	
18.32	4.060	9830.1	6.423	371.63	-1000000	-1000000	-1000000	-1000000	
18.34	4.060	9828.1	6.423	371.28	-1000000	-1000000	-1000000	-1000000	
18.36	4.060	9826.2	6.423	370.81	-1000000	-1000000	-1000000	-1000000	
18.38	4.060	9824.5	6.422	370.56	-1000000	-1000000	-1000000	-1000000	
18.40	4.060	9823.0	6.422	370.36	-1000000	-1000000	-1000000	-1000000	
18.42	4.060	9821.5	6.422	370.25	-1000000	-1000000	-1000000	-1000000	
18.44	4.060	9819.9	6.422	370.05	-1000000	-1000000	-1000000	-1000000	
18.46	4.060	9818.1	6.422	369.94	-1000000	-1000000	-1000000	-1000000	
18.48	4.060	9816.3	6.422	369.98	-1000000	-1000000	-1000000	-1000000	
18.50	4.060	9814.2	6.422	369.86	-1000000	-1000000	-1000000	-1000000	
18.52	4.060	9812.1	6.422	369.65	-1000000	-1000000	-1000000	-1000000	
18.54	4.060	9810.1	6.421	369.56	-1000000	-1000000	-1000000	-1000000	
18.56	4.060	9808.1	6.421	369.53	-1000000	-1000000	-1000000	-1000000	
18.58	4.060	9805.8	6.421	369.28	-1000000	-1000000	-1000000	-1000000	
18.60	4.060	9803.4	6.421	369.02	-1000000	-1000000	-1000000	-1000000	
18.62	4.060	9800.6	6.421	368.79	-1000000	-1000000	-1000000	-1000000	
18.64	4.060	9797.5	6.420	368.47	-1000000	-1000000	-1000000	-1000000	
18.66	4.060	9794.4	6.420	368.13	-1000000	-1000000	-1000000	-1000000	
18.68	4.060	9791.6	6.420	367.87	-1000000	-1000000	-1000000	-1000000	
18.70	4.060	9788.8	6.420	367.71	-1000000	-1000000	-1000000	-1000000	
18.72	4.060	9785.6	6.420	367.83	-1000000	-1000000	-1000000	-1000000	
18.74	4.060	9782.1	6.419	367.77	-1000000	-1000000	-1000000	-1000000	
18.76	4.060	9778.1	6.419	367.52	-1000000	-1000000	-1000000	-1000000	
18.78	4.060	9774.1	6.419	367.47	-1000000	-1000000	-1000000	-1000000	
18.80	4.060	9770.5	6.418	367.50	-1000000	-1000000	-1000000	-1000000	
18.82	4.060	9766.8	6.418	367.26	-1000000	-1000000	-1000000	-1000000	
18.84	4.060	9762.7	6.418	367.07	-1000000	-1000000	-1000000	-1000000	
18.86	4.060	9758.4	6.418	366.93	-1000000	-1000000	-1000000	-1000000	
18.88	4.060	9754.1	6.417	366.63	-1000000	-1000000	-1000000	-1000000	
18.90	4.060	9749.6	6.417	366.29	-1000000	-1000000	-1000000	-1000000	
18.92	4.060	9744.6	6.417	366.05	-1000000	-1000000	-1000000	-1000000	
18.94	4.060	9739.6	6.416	365.78	-1000000	-1000000	-1000000	-1000000	
18.96	4.060	9734.7	6.416	365.79	-1000000	-1000000	-1000000	-1000000	
18.98	4.060	9729.8	6.416	366.20	-1000000	-1000000	-1000000	-1000000	
19.00	4.060	9724.6	6.415	366.12	-1000000	-1000000	-1000000	-1000000	
19.02	4.060	9719.5	6.415	366.00	-1000000	-1000000	-1000000	-1000000	
19.04	4.060	9714.5	6.415	365.62	-1000000	-1000000	-1000000	-1000000	
19.06	4.060	9709.0	6.414	365.17	-1000000	-1000000	-1000000	-1000000	
19.08	4.060	9703.1	6.414	365.00	-1000000	-1000000	-1000000	-1000000	
19.10	4.060	9697.3	6.414	364.93	-1000000	-1000000	-1000000	-1000000	
19.12	4.060	9691.1	6.413	364.86	-1000000	-1000000	-1000000	-1000000	
19.14	4.060	9685.0	6.413	364.63	-1000000	-1000000	-1000000	-1000000	
19.16	4.060	9679.1	6.412	364.28	-1000000	-1000000	-1000000	-1000000	
19.18	4.059	9672.8	6.412	364.29	-1000000	-1000000	-1000000	-1000000	
19.20	4.059	9666.1	6.412	364.27	-1000000	-1000000	-1000000	-1000000	
19.22	4.059	9658.9	6.411	364.32	-1000000	-1000000	-1000000	-1000000	
19.24	4.059	9651.4	6.411	364.16	-1000000	-1000000	-1000000	-1000000	
19.26	4.059	9643.9	6.410	364.09	-1000000	-1000000	-1000000	-1000000	
19.28	4.059	9636.3	6.410	364.00	-1000000	-1000000	-1000000	-1000000	
19.30	4.059	9628.4	6.410	363.83	-1000000	-1000000	-1000000	-1000000	
19.32	4.059	9620.4	6.409	363.65	-1000000	-1000000	-1000000	-1000000	
19.34	4.059	9612.6	6.409	363.43	-1000000	-1000000	-1000000	-1000000	
19.36	4.059	9604.6	6.408	363.29	-1000000	-1000000	-1000000	-1000000	
19.38	4.059	9596.5	6.408	363.13	-1000000	-1000000	-1000000	-1000000	
19.40	4.058	9588.5	6.407	363.07	-1000000	-1000000	-1000000	-1000000	
19.42	4.058	9580.5	6.407	363.14	-1000000	-1000000	-1000000	-1000000	
19.44	4.058	9572.2	6.406	362.93	-1000000	-1000000	-1000000	-1000000	
19.46	4.058	9563.8	6.406	362.70	-1000000	-1000000	-1000000	-1000000	
19.48	4.058	9555.0	6.405	362.45	-1000000	-1000000	-1000000	-1000000	
19.50	4.058	9546.1	6.405	362.40	-1000000	-1000000	-1000000	-1000000	
19.52	4.058	9537.2	6.404	362.49	-1000000	-1000000	-1000000	-1000000	
19.54	4.058	9528.3	6.404	362.60	-1000000	-1000000	-1000000	-1000000	
19.56	4.058	9519.3	6.403	362.49	-1000000	-1000000	-1000000	-1000000	
19.58	4.058	9509.5	6.403	362.23	-1000000	-1000000	-1000000	-1000000	
19.60	4.057	9500.1	6.402	362.06	-1000000	-1000000	-1000000	-1000000	
19.62	4.057	9490.7	6.402	361.96	-1000000	-1000000	-1000000	-1000000	
19.64	4.057	9481.0	6.401	361.73	-1000000	-1000000	-1000000	-1000000	
19.66	4.057	9471.0	6.401	361.44	-1000000	-1000000	-1000000	-1000000	
19.68	4.057	9460.2	6.400	361.19	-1000000	-1000000	-1000000	-1000000	
19.70	4.057	9449.4	6.399	361.00	-1000000	-1000000	-1000000	-1000000	
19.72	4.057	9439.0	6.399	361.11	-1000000	-1000000	-1000000	-1000000	
19.74	4.057	9428.2	6.398	361.01	-1000000	-1000000	-1000000	-1000000	
19.76	4.056	9417.5	6.398	360.67	-1000000	-1000000	-1000000	-1000000	
19.78	4.056	9406.8	6.397	360.40	-1000000	-1000000	-1000000	-1000000	
19.80	4.056	9396.0	6.397	360.48	-1000000	-1000000	-1000000	-1000000	
19.82	4.056	9384.7	6.396	360.55	-1000000	-1000000	-1000000	-1000000	
19.84	4.056	9373.4	6.395	360.33	-1000000	-1000000	-1000000	-1000000	
19.86	4.056	9361.6	6.395	360.19	-1000000	-1000000	-1000000	-1000000	
19.88	4.056	9349.6	6.394	360.39	-1000000	-1000000	-1000000	-1000000	
19.90	4.055	9337.4	6.393	360.49	-1000000	-1000000	-1000000	-1000000	
19.92	4.055	9325.2	6.393	360.22	-1000000	-1000000	-1000000	-1000000	
19.94	4.055	9312.7	6.392	360.06	-1000000	-1000000	-1000000	-1000000	
19.96	4.055	9300.6	6.392	359.75	-1000000	-1000000	-1000000	-1000000	
19.98	4.055	9288.5	6.391	359.41	-1000000	-1000000	-1000000	-1000000	
20.00	4.055	9275.8	6.390	358.97	-1000000	-1000000	-1000000	-1000000	
20.02	4.055	9263.3	6.390	359.12	-1000000	-1000000	-1000000	-1000000	
20.04	4.054	9250.6	6.389	359.32	-1000000	-1000000	-1000000	-1000000	
20.06	4.054	9237.9	6.388	359.21	-1000000	-1000000	-1000000	-1000000	
20.08	4.054	9225.2	6.387	359.02	-1000000	-1000000	-1000000	-1000000	
20.10	4.054	9212.2	6.387	358.80	-1000000	-1000000	-1000000	-1000000	
20.12	4.054	9198.8	6.386	358.72	-1000000	-1000000	-1000000	-1000000	
20.14	4.054	9184.9	6.385	358.81	-1000000	-1000000	-1000000	-1000000	
20.16	4.054	9170.6	6.385	358.63	-1000000	-1000000	-1000000	-1000000	
20.18	4.053	9156.7	6.384	358.26	-1000000	-1000000	-1000000	-1000000	
20.20	4.053	9142.9	6.383	358.26	-1000000	-1000000	-1000000	-1000000	
20.22	4.053	9128.8	6.382	358.38	-1000000	-1000000	-1000000	-1000000	
20.24	4.053	9114.9	6.382	358.31	-1000000	-1000000	-1000000	-1000000	
20.26	4.053	9101.0	6.381	358.24	-1000000	-1000000	-1000000	-1000000	
20.28	4.053	9086.7	6.380	358.06	-1000000	-1000000	-1000000	-1000000	
20.30	4.052	9072.2	6.379	357.98	-1000000	-1000000	-1000000	-1000000	
20.32	4.052	9057.6	6.379	357.92	-1000000	-1000000	-1000000	-1000000	
20.34	4.052	9042.8	6.378	357.95	-1000000	-1000000	-1000000	-1000000	
20.36	4.052	9027.7	6.377	357.81	-1000000	-1000000	-1000000	-1000000	
20.38	4.052	9012.2	6.376	357.62	-1000000	-1000000	-1000000	-1000000	
20.40	4.052	8996.9	6.375	357.38	-1000000	-1000000	-1000000	-1000000	
20.42	4.051	8981.5	6.375	357.17	-1000000	-1000000	-1000000	-1000000	
20.44	4.051	8966.0	6.374	357.03	-1000000	-1000000	-1000000	-1000000	
20.46	4.051	8950.2	6.373	357.07	-1000000	-1000000	-1000000	-1000000	
20.48	4.051	8934.5	6.372	357.09	-1000000	-1000000	-1000000	-1000000	
20.50	4.051	8918.7	6.371	356.87	-1000000	-1000000	-1000000	-1000000	
20.52	4.051	8902.7	6.371	356.69	-1000000	-1000000	-1000000	-1000000	
20.54	4.050	8886.2	6.370	356.58	-1000000	-1000000	-1000000	-1000000	
20.56	4.050	8869.3	6.369	356.45	-1000000	-1000000	-1000000	-1000000	
20.58	4.050	8851.7	6.368	356.45	-1000000	-1000000	-1000000	-1000000	
20.60	4.050	8834.2	6.367	356.53	-1000000	-1000000	-1000000	-1000000	
20.62	4.050	8816.9	6.366	356.60	-1000000	-1000000	-1000000	-1000000	
20.64	4.049	8799.3	6.365	356.42	-1000000	-1000000	-1000000	-1000000	
20.66	4.049	8782.1	6.364	355.95	-1000000	-1000000	-1000000	-1000000	
20.68	4.049	8765.2	6.364	355.71	-1000000	-1000000	-1000000	-1000000	
20.70	4.049	8747.9	6.363	355.62	-1000000	-1000000	-1000000	-1000000	
20.72	4.049	8730.5	6.362	355.74	-1000000	-1000000	-1000000	-1000000	
20.74	4.048	8712.8	6.361	355.86	-1000000	-1000000	-1000000	-1000000	
20.76	4.048	8695.4	6.360	355.87	-1000000	-1000000	-1000000	-1000000	
20.78	4.048	8678.0	6.359	355.61	-1000000	-1000000	-1000000	-1000000	
20.80	4.048	8659.9	6.358	355.41	-1000000	-1000000	-1000000	-1000000	
20.82	4.048	8641.6	6.357	355.33	-1000000	-1000000	-1000000	-1000000	
20.84	4.047	8623.5	6.356	355.11	-1000000	-1000000	-1000000	-1000000	
20.86	4.047	8605.9	6.355	355.04	-1000000	-1000000	-1000000	-1000000	
20.88	4.047	8587.9	6.354	355.13	-1000000	-1000000	-1000000	-1000000	
20.90	4.047	8569.4	6.353	355.22	-1000000	-1000000	-1000000	-1000000	
20.92	4.047	8551.0	6.352	354.96	-1000000	-1000000	-1000000	-1000000	
20.94	4.046	8532.9	6.351	354.60	-1000000	-1000000	-1000000	-1000000	
20.96	4.046	8514.6	6.350	354.43	-1000000	-1000000	-1000000	-1000000	
20.98	4.046	8495.8	6.349	354.32	-1000000	-1000000	-1000000	-1000000	
21.00	4.046	8477.0	6.348	354.28	-1000000	-1000000	-1000000	-1000000	
21.02	4.046	8458.0	6.347	354.10	-1000000	-1000000	-1000000	-1000000	
21.04	4.045	8438.7	6.346	353.94	-1000000	-1000000	-1000000	-1000000	
21.06	4.045	8419.2	6.345	353.91	-1000000	-1000000	-1000000	-1000000	
21.08	4.045	8400.0	6.344	353.91	-1000000	-1000000	-1000000	-1000000	
21.10	4.045	8380.5	6.343	354.26	-1000000	-1000000	-1000000	-1000000	
21.12	4.045	8360.4	6.342	354.29	-1000000	-1000000	-1000000	-1000000	
21.14	4.044	8340.3	6.341	354.40	-1000000	-1000000	-1000000	-1000000	
21.16	4.044	8320.4	6.340	354.21	-1000000	-1000000	-1000000	-1000000	
21.18	4.044	8300.5	6.339	353.85	-1000000	-1000000	-1000000	-1000000	
21.20	4.044	8281.1	6.338	353.37	-1000000	-1000000	-1000000	-1000000	
21.22	4.043	8260.8	6.337	353.30	-1000000	-1000000	-1000000	-1000000	
21.24	4.043	8240.0	6.336	353.31	-1000000	-1000000	-1000000	-1000000	
21.26	4.043	8219.2	6.335	353.42	-1000000	-1000000	-1000000	-1000000	
21.28	4.043	8198.3	6.334	353.34	-1000000	-1000000	-1000000	-1000000	
21.30	4.043	8177.3	6.333	353.29	-1000000	-1000000	-1000000	-1000000	
21.32	4.042	8156.5	6.332	353.26	-1000000	-1000000	-1000000	-1000000	
21.34	4.042	8135.6	6.330	353.31	-1000000	-1000000	-1000000	-1000000	
21.36	4.042	8114.3	6.329	353.32	-1000000	-1000000	-1000000	-1000000	
21.38	4.042	8092.9	6.328	353.27	-1000000	-1000000	-1000000	-1000000	
21.40	4.041	8071.5	6.327	353.34	-1000000	-1000000	-1000000	-1000000	
21.42	4.041	8049.8	6.326	353.14	-1000000	-1000000	-1000000	-1000000	
21.44	4.041	8027.6	6.325	352.89	-1000000	-1000000	-1000000	-1000000	
21.46	4.041	8005.4	6.324	352.71	-1000000	-1000000	-1000000	-1000000	
21.48	4.040	7983.6	6.323	352.50	-1000000	-1000000	-1000000	-1000000	
21.50	4.040	7961.8	6.321	352.45	-1000000	-1000000	-1000000	-1000000	
21.52	4.040	7939.9	6.320	352.51	-1000000	-1000000	-1000000	-1000000	
21.54	4.040	7918.0	6.319	352.62	-1000000	-1000000	-1000000	-1000000	
21.56	4.039	7895.8	6.318	352.52	-1000000	-1000000	-1000000	-1000000	
21.58	4.039	7873.3	6.317	352.26	-1000000	-1000000	-1000000	-1000000	
21.60	4.039	7850.9	6.315	352.06	-1000000	-1000000	-1000000	-1000000	
21.62	4.039	7828.3	6.314	352.05	-1000000	-1000000	-1000000	-1000000	
21.64	4.039	7805.8	6.313	352.23	-1000000	-1000000	-1000000	-1000000	
21.66	4.038	7782.9	6.312	352.35	-1000000	-1000000	-1000000	-1000000	
21.68	4.038	7759.6	6.311	352.35	-1000000	-1000000	-1000000	-1000000	
21.70	4.038	7736.2	6.309	352.04	-1000000	-1000000	-1000000	-1000000	
21.72	4.038	7713.3	6.308	351.74	-1000000	-1000000	-1000000	-1000000	
21.74	4.037	7690.5	6.307	351.63	-1000000	-1000000	-1000000	-1000000	
21.76	4.037	7667.3	6.305	351.88	-1000000	-1000000	-1000000	-1000000	
21.78	4.037	7643.2	6.304	351.88	-1000000	-1000000	-1000000	-1000000	
21.80	4.037	7619.0	6.303	351.60	-1000000	-1000000	-1000000	-1000000	
21.82	4.036	7594.8	6.302	351.38	-1000000	-1000000	-1000000	-1000000	
21.84	4.036	7570.3	6.301	351.58	-1000000	-1000000	-1000000	-1000000	
21.86	4.036	7546.0	6.299	351.39	-1000000	-1000000	-1000000	-1000000	
21.88	4.036	7521.7	6.298	350.85	-1000000	-1000000	-1000000	-1000000	
21.90	4.035	7497.4	6.297	350.29	-1000000	-1000000	-1000000	-1000000	
21.92	4.035	7472.9	6.295	350.30	-1000000	-1000000	-1000000	-1000000	
21.94	4.035	7448.4	6.294	350.48	-1000000	-1000000	-1000000	-1000000	
21.96	4.034	7423.5	6.293	350.49	-1000000	-1000000	-1000000	-1000000	
21.98	4.034	7398.3	6.291	350.37	-1000000	-1000000	-1000000	-1000000	
22.00	4.034	7373.2	6.290	350.36	-1000000	-1000000	-1000000	-1000000	
22.02	4.034	7348.4	6.289	350.38	-1000000	-1000000	-1000000	-1000000	
22.04	4.033	7323.5	6.287	350.45	-1000000	-1000000	-1000000	-1000000	
22.06	4.033	7298.6	6.286	350.31	-1000000	-1000000	-1000000	-1000000	
22.08	4.033	7273.8	6.284	350.29	-1000000	-1000000	-1000000	-1000000	
22.10	4.033	7249.0	6.283	350.08	-1000000	-1000000	-1000000	-1000000	
22.12	4.032	7223.8	6.282	350.03	-1000000	-1000000	-1000000	-1000000	
22.14	4.032	7198.2	6.281	349.77	-1000000	-1000000	-1000000	-1000000	
22.16	4.032	7172.1	6.279	349.70	-1000000	-1000000	-1000000	-1000000	
22.18	4.032	7146.0	6.278	349.38	-1000000	-1000000	-1000000	-1000000	
22.20	4.031	7120.0	6.277	349.07	-1000000	-1000000	-1000000	-1000000	
22.22	4.031	7094.2	6.275	349.27	-1000000	-1000000	-1000000	-1000000	
22.24	4.031	7067.8	6.273	349.49	-1000000	-1000000	-1000000	-1000000	
22.26	4.030	7040.8	6.272	349.58	-1000000	-1000000	-1000000	-1000000	
22.28	4.030	7013.8	6.270	349.54	-1000000	-1000000	-1000000	-1000000	
22.30	4.030	6986.7	6.269	349.38	-1000000	-1000000	-1000000	-1000000	
22.32	4.030	6959.2	6.268	349.22	-1000000	-1000000	-1000000	-1000000	
22.34	4.029	6931.6	6.266	349.63	-1000000	-1000000	-1000000	-1000000	
22.36	4.029	6903.4	6.265	350.05	-1000000	-1000000	-1000000	-1000000	
22.38	4.029	6874.6	6.263	349.74	-1000000	-1000000	-1000000	-1000000	
22.40	4.029	6845.0	6.262	349.47	-1000000	-1000000	-1000000	-1000000	
22.42	4.028	6814.0	6.260	349.49	-1000000	-1000000	-1000000	-1000000	
22.44	4.028	6781.6	6.259	349.81	-1000000	-1000000	-1000000	-1000000	
22.46	4.028	6748.0	6.258	350.14	-1000000	-1000000	-1000000	-1000000	
22.48	4.028	6713.5	6.256	350.40	-1000000	-1000000	-1000000	-1000000	
22.50	4.027	6678.7	6.254	350.51	-1000000	-1000000	-1000000	-1000000	
22.52	4.027	6643.9	6.253	350.56	-1000000	-1000000	-1000000	-1000000	
22.54	4.027	6610.4	6.252	350.64	-1000000	-1000000	-1000000	-1000000	
22.56	4.027	6578.3	6.250	350.63	-1000000	-1000000	-1000000	-1000000	
22.58	4.026	6547.4	6.248	350.61	-1000000	-1000000	-1000000	-1000000	
22.60	4.026	6517.5	6.247	350.27	-1000000	-1000000	-1000000	-1000000	
22.62	4.026	6488.3	6.246	350.00	-1000000	-1000000	-1000000	-1000000	
22.64	4.025	6459.1	6.244	350.12	-1000000	-1000000	-1000000	-1000000	
22.66	4.025	6429.8	6.242	350.17	-1000000	-1000000	-1000000	-1000000	
22.68	4.025	6400.5	6.241	350.18	-1000000	-1000000	-1000000	-1000000	
22.70	4.024	6371.1	6.239	350.15	-1000000	-1000000	-1000000	-1000000	
22.72	4.024	6341.9	6.238	349.81	-1000000	-1000000	-1000000	-1000000	
22.74	4.024	6312.6	6.236	349.48	-1000000	-1000000	-1000000	-1000000	
22.76	4.023	6283.2	6.234	349.68	-1000000	-1000000	-1000000	-1000000	
22.78	4.023	6253.5	6.233	350.04	-1000000	-1000000	-1000000	-1000000	
22.80	4.023	6223.4	6.231	350.30	-1000000	-1000000	-1000000	-1000000	
22.82	4.023	6193.2	6.230	349.95	-1000000	-1000000	-1000000	-1000000	
22.84	4.022	6163.4	6.228	349.62	-1000000	-1000000	-1000000	-1000000	
22.86	4.022	6133.9	6.226	349.56	-1000000	-1000000	-1000000	-1000000	
22.88	4.022	6104.2	6.225	349.84	-1000000	-1000000	-1000000	-1000000	
22.90	4.021	6073.7	6.223	349.83	-1000000	-1000000	-1000000	-1000000	
22.92	4.021	6042.6	6.221	349.54	-1000000	-1000000	-1000000	-1000000	
22.94	4.021	6011.9	6.220	349.24	-1000000	-1000000	-1000000	-1000000	
22.96	4.020	5981.3	6.218	349.13	-1000000	-1000000	-1000000	-1000000	
22.98	4.020	5950.1	6.216	349.04	-1000000	-1000000	-1000000	-1000000	
23.00	4.020	5918.2	6.215	348.98	-1000000	-1000000	-1000000	-1000000	
23.02	4.020	5886.1	6.213	349.02	-1000000	-1000000	-1000000	-1000000	
23.04	4.019	5853.5	6.212	349.12	-1000000	-1000000	-1000000	-1000000	
23.06	4.019	5820.4	6.210	349.44	-1000000	-1000000	-1000000	-1000000	
23.08	4.019	5786.8	6.208	349.22	-1000000	-1000000	-1000000	-1000000	
23.10	4.018	5752.3	6.206	348.91	-1000000	-1000000	-1000000	-1000000	
23.12	4.018	5717.5	6.205	349.14	-1000000	-1000000	-1000000	-1000000	
23.14	4.018	5681.9	6.203	349.46	-1000000	-1000000	-1000000	-1000000	
23.16	4.017	5645.9	6.201	349.85	-1000000	-1000000	-1000000	-1000000	
23.18	4.017	5609.8	6.200	350.08	-1000000	-1000000	-1000000	-1000000	
23.20	4.017	5573.8	6.198	349.89	-1000000	-1000000	-1000000	-1000000	
23.22	4.016	5537.9	6.196	349.55	-1000000	-1000000	-1000000	-1000000	
23.24	4.016	5502.4	6.194	349.47	-1000000	-1000000	-1000000	-1000000	
23.26	4.016	5467.0	6.193	349.77	-1000000	-1000000	-1000000	-1000000	
23.28	4.015	5432.1	6.191	349.63	-1000000	-1000000	-1000000	-1000000	
23.30	4.015	5397.5	6.189	349.48	-1000000	-1000000	-1000000	-1000000	
23.32	4.015	5363.1	6.187	349.47	-1000000	-1000000	-1000000	-1000000	
23.34	4.015	5329.2	6.186	349.71	-1000000	-1000000	-1000000	-1000000	
23.36	4.014	5295.4	6.184	350.08	-1000000	-1000000	-1000000	-1000000	
23.38	4.014	5261.5	6.182	350.16	-1000000	-1000000	-1000000	-1000000	
23.40	4.014	5226.9	6.180	350.08	-1000000	-1000000	-1000000	-1000000	
23.42	4.013	5191.5	6.178	350.09	-1000000	-1000000	-1000000	-1000000	
23.44	4.013	5155.7	6.177	349.81	-1000000	-1000000	-1000000	-1000000	
23.46	4.012	5120.1	6.175	349.97	-1000000	-1000000	-1000000	-1000000	
23.48	4.012	5084.6	6.173	350.20	-1000000	-1000000	-1000000	-1000000	
23.50	4.012	5049.2	6.171	350.45	-1000000	-1000000	-1000000	-1000000	
23.52	4.012	5013.9	6.169	350.64	-1000000	-1000000	-1000000	-1000000	
23.54	4.011	4978.5	6.167	350.44	-1000000	-1000000	-1000000	-1000000	
23.56	4.011	4943.3	6.165	350.15	-1000000	-1000000	-1000000	-1000000	
23.58	4.010	4908.1	6.164	349.92	-1000000	-1000000	-1000000	-1000000	
23.60	4.010	4872.8	6.162	349.87	-1000000	-1000000	-1000000	-1000000	
23.62	4.010	4837.6	6.160	350.00	-1000000	-1000000	-1000000	-1000000	
23.64	4.009	4802.3	6.158	350.09	-1000000	-1000000	-1000000	-1000000	
23.66	4.009	4766.7	6.156	349.92	-1000000	-1000000	-1000000	-1000000	
23.68	4.009	4731.2	6.154	350.02	-1000000	-1000000	-1000000	-1000000	
23.70	4.008	4696.2	6.152	350.08	-1000000	-1000000	-1000000	-1000000	
23.72	4.008	4661.3	6.150	350.02	-1000000	-1000000	-1000000	-1000000	
23.74	4.008	4626.4	6.149	349.77	-1000000	-1000000	-1000000	-1000000	
23.76	4.007	4591.6	6.147	349.66	-1000000	-1000000	-1000000	-1000000	
23.78	4.007	4556.9	6.145	349.69	-1000000	-1000000	-1000000	-1000000	
23.80	4.006	4522.2	6.143	349.76	-1000000	-1000000	-1000000	-1000000	
23.82	4.006	4487.1	6.141	350.03	-1000000	-1000000	-1000000	-1000000	
23.84	4.006	4451.3	6.139	349.75	-1000000	-1000000	-1000000	-1000000	
23.86	4.005	4415.3	6.137	349.54	-1000000	-1000000	-1000000	-1000000	
23.88	4.005	4379.5	6.135	349.73	-1000000	-1000000	-1000000	-1000000	
23.90	4.005	4343.4	6.133	349.42	-1000000	-1000000	-1000000	-1000000	
23.92	4.004	4306.8	6.131	349.20	-1000000	-1000000	-1000000	-1000000	
23.94	4.004	4270.0	6.129	349.32	-1000000	-1000000	-1000000	-1000000	
23.96	4.003	4232.8	6.127	349.51	-1000000	-1000000	-1000000	-1000000	
23.98	4.003	4195.0	6.125	349.46	-1000000	-1000000	-1000000	-1000000	
24.00	4.003	4156.9	6.123	349.56	-1000000	-1000000	-1000000	-1000000	
24.02	4.002	4118.4	6.121	349.71	-1000000	-1000000	-1000000	-1000000	
24.04	4.002	4079.7	6.119	349.85	-1000000	-1000000	-1000000	-1000000	
24.06	4.002	4040.9	6.117	349.65	-1000000	-1000000	-1000000	-1000000	
24.08	4.001	4001.9	6.115	349.66	-1000000	-1000000	-1000000	-1000000	
24.10	4.001	3963.1	6.113	349.63	-1000000	-1000000	-1000000	-1000000	
24.12	4.001	3924.3	6.111	349.63	-1000000	-1000000	-1000000	-1000000	
24.14	4.000	3885.6	6.109	349.60	-1000000	-1000000	-1000000	-1000000	
24.16	4.000	3847.0	6.107	349.70	-1000000	-1000000	-1000000	-1000000	
24.18	3.999	3808.0	6.105	349.74	-1000000	-1000000	-1000000	-1000000	
24.20	3.999	3768.8	6.103	349.61	-1000000	-1000000	-1000000	-1000000	
24.22	3.999	3729.6	6.101	349.43	-1000000	-1000000	-1000000	-1000000	
24.24	3.998	3690.5	6.099	349.26	-1000000	-1000000	-1000000	-1000000	
24.26	3.998	3651.3	6.096	349.25	-1000000	-1000000	-1000000	-1000000	
24.28	3.997	3612.0	6.094	349.69	-1000000	-1000000	-1000000	-1000000	
24.30	3.997	3573.0	6.092	350.03	-1000000	-1000000	-1000000	-1000000	
24.32	3.997	3534.2	6.090	349.95	-1000000	-1000000	-1000000	-1000000	
24.34	3.996	3495.2	6.088	349.91	-1000000	-1000000	-1000000	-1000000	
24.36	3.996	3456.3	6.086	349.79	-1000000	-1000000	-1000000	-1000000	
24.38	3.995	3417.6	6.084	349.42	-1000000	-1000000	-1000000	-1000000	
24.40	3.995	3378.8	6.082	349.34	-1000000	-1000000	-1000000	-1000000	
24.42	3.995	3339.8	6.080	349.56	-1000000	-1000000	-1000000	-1000000	
24.44	3.994	3300.8	6.078	349.78	-1000000	-1000000	-1000000	-1000000	
24.46	3.994	3261.5	6.075	349.88	-1000000	-1000000	-1000000	-1000000	
24.48	3.993	3222.2	6.073	349.72	-1000000	-1000000	-1000000	-1000000	
24.50	3.993	3182.5	6.071	349.48	-1000000	-1000000	-1000000	-1000000	
24.52	3.993	3142.6	6.069	349.66	-1000000	-1000000	-1000000	-1000000	
24.54	3.992	3103.2	6.067	349.73	-1000000	-1000000	-1000000	-1000000	
24.56	3.992	3063.4	6.065	349.80	-1000000	-1000000	-1000000	-1000000	
24.58	3.991	3023.3	6.062	350.09	-1000000	-1000000	-1000000	-1000000	
24.60	3.991	2982.7	6.060	350.21	-1000000	-1000000	-1000000	-1000000	
24.62	3.990	2941.6	6.058	350.08	-1000000	-1000000	-1000000	-1000000	
24.64	3.990	2901.1	6.056	349.68	-1000000	-1000000	-1000000	-1000000	
24.66	3.990	2860.5	6.053	349.52	-1000000	-1000000	-1000000	-1000000	
24.68	3.989	2819.3	6.051	349.37	-1000000	-1000000	-1000000	-1000000	
24.70	3.989	2778.3	6.049	349.56	-1000000	-1000000	-1000000	-1000000	
24.72	3.988	2737.5	6.047	349.95	-1000000	-1000000	-1000000	-1000000	
24.74	3.988	2696.7	6.044	350.25	-1000000	-1000000	-1000000	-1000000	
24.76	3.988	2656.0	6.042	350.39	-1000000	-1000000	-1000000	-1000000	
24.78	3.987	2615.0	6.040	350.33	-1000000	-1000000	-1000000	-1000000	
24.80	3.987	2573.7	6.038	349.97	-1000000	-1000000	-1000000	-1000000	
24.82	3.986	2532.0	6.035	349.70	-1000000	-1000000	-1000000	-1000000	
24.84	3.986	2489.8	6.033	349.66	-1000000	-1000000	-1000000	-1000000	
24.86	3.985	2447.2	6.031	349.52	-1000000	-1000000	-1000000	-1000000	
24.88	3.985	2404.5	6.028	349.50	-1000000	-1000000	-1000000	-1000000	
24.90	3.985	2361.7	6.026	349.46	-1000000	-1000000	-1000000	-1000000	
24.92	3.984	2318.8	6.024	349.56	-1000000	-1000000	-1000000	-1000000	
24.94	3.984	2276.3	6.022	349.42	-1000000	-1000000	-1000000	-1000000	
24.96	3.983	2234.5	6.019	349.21	-1000000	-1000000	-1000000	-1000000	
24.98	3.983	2193.0	6.017	349.24	-1000000	-1000000	-1000000	-1000000	
25.00	3.982	2151.3	6.015	349.59	-1000000	-1000000	-1000000	-1000000	
25.02	3.982	2108.8	6.012	349.94	-1000000	-1000000	-1000000	-1000000	
25.04	3.981	2066.2	6.010	349.93	-1000000	-1000000	-1000000	-1000000	
25.06	3.981	2023.0	6.008	349.73	-1000000	-1000000	-1000000	-1000000	
25.08	3.980	1979.0	6.005	349.51	-1000000	-1000000	-1000000	-1000000	
25.10	3.980	1934.6	6.003	349.70	-1000000	-1000000	-1000000	-1000000	
25.12	3.980	1890.1	6.001	349.94	-1000000	-1000000	-1000000	-1000000	
25.14	3.979	1845.5	5.998	349.81	-1000000	-1000000	-1000000	-1000000	
25.16	3.979	1801.5	5.996	349.52	-1000000	-1000000	-1000000	-1000000	
25.18	3.978	1758.0	5.993	349.38	-1000000	-1000000	-1000000	-1000000	
25.20	3.978	1714.6	5.991	349.49	-1000000	-1000000	-1000000	-1000000	
25.22	3.977	1670.9	5.989	349.61	-1000000	-1000000	-1000000	-1000000	
25.24	3.977	1627.1	5.986	349.63	-1000000	-1000000	-1000000	-1000000	
25.26	3.976	1583.5	5.984	349.38	-1000000	-1000000	-1000000	-1000000	
25.28	3.976	1540.5	5.981	349.63	-1000000	-1000000	-1000000	-1000000	
25.30	3.975	1497.5	5.979	349.76	-1000000	-1000000	-1000000	-1000000	
25.32	3.975	1454.2	5.976	349.82	-1000000	-1000000	-1000000	-1000000	
25.34	3.974	1410.7	5.974	349.92	-1000000	-1000000	-1000000	-1000000	
25.36	3.974	1366.9	5.972	349.97	-1000000	-1000000	-1000000	-1000000	
25.38	3.973	1322.4	5.969	349.91	-1000000	-1000000	-1000000	-1000000	
25.40	3.973	1277.5	5.966	349.82	-1000000	-1000000	-1000000	-1000000	
25.42	3.972	1232.3	5.964	349.84	-1000000	-1000000	-1000000	-1000000	
25.44	3.972	1187.0	5.962	350.01	-1000000	-1000000	-1000000	-1000000	
25.46	3.971	1141.7	5.959	350.25	-1000000	-1000000	-1000000	-1000000	
25.48	3.971	1096.3	5.957	350.33	-1000000	-1000000	-1000000	-1000000	
25.50	3.970	1051.4	5.954	350.19	-1000000	-1000000	-1000000	-1000000	
25.52	3.970	1006.8	5.951	350.10	-1000000	-1000000	-1000000	-1000000	
25.54	3.969	962.76	5.949	350.41	-1000000	-1000000	-1000000	-1000000	
25.56	3.969	918.43	5.947	350.31	-1000000	-1000000	-1000000	-1000000	
25.58	3.968	874.07	5.944	350.07	-1000000	-1000000	-1000000	-1000000	
25.60	3.968	830.13	5.941	350.09	-1000000	-1000000	-1000000	-1000000	
25.62	3.967	785.74	5.939	350.02	-1000000	-1000000	-1000000	-1000000	
25.64	3.967	741.28	5.937	349.89	-1000000	-1000000	-1000000	-1000000	
25.66	3.966	697.22	5.934	350.07	-1000000	-1000000	-1000000	-1000000	
25.68	3.966	652.80	5.931	350.31	-1000000	-1000000	-1000000	-1000000	
25.70	3.965	608.53	5.929	350.21	-1000000	-1000000	-1000000	-1000000	
25.72	3.964	564.49	5.926	350.25	-1000000	-1000000	-1000000	-1000000	
25.74	3.964	520.28	5.924	350.24	-1000000	-1000000	-1000000	-1000000	
25.76	3.963	476.47	5.921	349.91	-1000000	-1000000	-1000000	-1000000	
25.78	3.963	432.70	5.919	349.95	-1000000	-1000000	-1000000	-1000000	
25.80	3.962	388.87	5.916	350.22	-1000000	-1000000	-1000000	-1000000	
25.82	3.962	345.16	5.913	349.93	-1000000	-1000000	-1000000	-1000000	
25.84	3.961	301.58	5.911	349.85	-1000000	-1000000	-1000000	-1000000	
25.86	3.961	257.72	5.908	349.68	-1000000	-1000000	-1000000	-1000000	
25.88	3.960	213.39	5.905	349.46	-1000000	-1000000	-1000000	-1000000	
25.90	3.959	169.03	5.903	349.37	-1000000	-1000000	-1000000	-1000000	
25.92	3.959	124.45	5.900	349.30	-1000000	-1000000	-1000000	-1000000	
25.94	3.958	80.14	5.898	349.52	-1000000	-1000000	-1000000	-1000000	
25.96	3.958	37.81	5.895	349.69	-1000000	-1000000	-1000000	-1000000	
25.98	3.958	-0.6260	5.892	349.62	-1000000	-1000000	-1000000	-1000000	
26.00	3.958	-32.26	5.890	349.33	-1000000	-1000000	-1000000	-1000000	
26.02	3.958	-54.97	5.889	349.04	-1000000	-1000000	-1000000	-1000000	
26.04	3.958	-68.75	5.888	349.02	-1000000	-1000000	-1000000	-1000000	
26.06	3.958	-75.30	5.888	349.21	-1000000	-1000000	-1000000	-1000000	
26.08	3.958	-76.88	5.888	349.61	-1000000	-1000000	-1000000	-1000000	
26.10	3.958	-76.47	5.888	349.57	-1000000	-1000000	-1000000	-1000000	
26.12	3.958	-76.10	5.888	349.42	-1000000	-1000000	-1000000	-1000000	
26.14	3.958	-76.12	5.888	349.72	-1000000	-1000000	-1000000	-1000000	
26.16	3.958	-76.27	5.888	350.01	-1000000	-1000000	-1000000	-1000000	
26.18	3.958	-76.19	5.888	349.77	-1000000	-1000000	-1000000	-1000000	
26.20	3.958	-76.05	5.888	349.75	-1000000	-1000000	-1000000	-1000000	
26.22	3.958	-76.23	5.888	349.87	-1000000	-1000000	-1000000	-1000000	
26.24	3.958	-76.30	5.887	350.22	-1000000	-1000000	-1000000	-1000000	
26.26	3.958	-76.30	5.887	350.13	-1000000	-1000000	-1000000	-1000000	
26.28	3.957	-76.24	5.887	349.94	-1000000	-1000000	-1000000	-1000000	
26.30	3.957	-76.07	5.887	349.92	-1000000	-1000000	-1000000	-1000000	
26.32	3.957	-76.08	5.887	350.24	-1000000	-1000000	-1000000	-1000000	
26.34	3.957	-76.15	5.887	350.55	-1000000	-1000000	-1000000	-1000000	
26.36	3.957	-76.22	5.888	350.32	-1000000	-1000000	-1000000	-1000000	
26.38	3.957	-76.34	5.888	349.92	-1000000	-1000000	-1000000	-1000000	
26.40	3.957	-76.39	5.888	350.10	-1000000	-1000000	-1000000	-1000000	
26.42	3.957	-76.20	5.888	350.34	-1000000	-1000000	-1000000	-1000000	
26.44	3.957	-76.10	5.888	350.22	-1000000	-1000000	-1000000	-1000000	
26.46	3.957	-76.18	5.888	350.04	-1000000	-1000000	-1000000	-1000000	
26.48	3.957	-76.10	5.888	350.27	-1000000	-1000000	-1000000	-1000000	
26.50	3.957	-75.99	5.888	350.17	-1000000	-1000000	-1000000	-1000000	
26.52	3.957	-76.10	5.888	350.13	-1000000	-1000000	-1000000	-1000000	
26.54	3.957	-76.20	5.888	350.09	-1000000	-1000000	-1000000	-1000000	
26.56	3.957	-74.92	5.888	350.10	-1000000	-1000000	-1000000	-1000000	
26.58	3.957	-64.27	5.888	350.06	-1000000	-1000000	-1000000	-1000000	
26.60	3.957	-51.96	5.888	349.77	-1000000	-1000000	-1000000	-1000000	
26.62	3.957	-46.17	5.888	349.38	-1000000	-1000000	-1000000	-1000000	
26.64	3.957	-44.18	5.888	349.39	-1000000	-1000000	-1000000	-1000000	
26.66	3.957	-42.78	5.888	349.56	-1000000	-1000000	-1000000	-1000000	
26.68	3.957	-41.34	5.888	349.70	-1000000	-1000000	-1000000	-1000000	
26.70	3.957	-39.98	5.888	349.77	-1000000	-1000000	-1000000	-1000000	
26.72	3.957	-39.05	5.888	349.72	-1000000	-1000000	-1000000	-1000000	
26.74	3.957	-38.12	5.888	349.82	-1000000	-1000000	-1000000	-1000000	
26.76	3.957	-36.97	5.888	350.11	-1000000	-1000000	-1000000	-1000000	
26.78	3.957	-36.10	5.888	350.15	-1000000	-1000000	-1000000	-1000000	
26.80	3.957	-35.07	5.888	349.82	-1000000	-1000000	-1000000	-1000000	
26.82	3.957	-33.67	5.888	349.55	-1000000	-1000000	-1000000	-1000000	
26.84	3.957	-32.06	5.888	349.40	-1000000	-1000000	-1000000	-1000000	
26.86	3.957	-30.49	5.888	349.51	-1000000	-1000000	-1000000	-1000000	
26.88	3.957	-28.48	5.888	349.70	-1000000	-1000000	-1000000	-1000000	
26.90	3.957	-26.31	5.888	349.74	-1000000	-1000000	-1000000	-1000000	
26.92	3.957	-23.80	5.888	349.45	-1000000	-1000000	-1000000	-1000000	
26.94	3.957	-22.04	5.888	349.45	-1000000	-1000000	-1000000	-1000000	
26.96	3.957	-20.02	5.888	349.42	-1000000	-1000000	-1000000	-1000000	
26.98	3.957	-17.74	5.888	349.53	-1000000	-1000000	-1000000	-1000000	
27.00	3.957	-16.04	5.888	349.52	-1000000	-1000000	-1000000	-1000000	
27.02	3.957	-13.75	5.888	349.42	-1000000	-1000000	-1000000	-1000000	
27.04	3.956	-11.21	5.888	349.40	-1000000	-1000000	-1000000	-1000000	
27.06	3.957	-9.733	5.888	349.16	-1000000	-1000000	-1000000	-1000000	
27.08	3.957	-8.512	5.888	348.89	-1000000	-1000000	-1000000	-1000000	
27.10	3.957	-6.298	5.888	349.01	-1000000	-1000000	-1000000	-1000000	
27.12	3.956	-3.378	5.888	349.17	-1000000	-1000000	-1000000	-1000000	
27.14	3.956	-0.6596	5.888	349.06	-1000000	-1000000	-1000000	-1000000	
27.16	3.956	1.546	5.888	349.00	-1000000	-1000000	-1000000	-1000000	
27.18	3.956	3.391	5.888	348.90	-1000000	-1000000	-1000000	-1000000	
27.20	3.956	5.214	5.888	348.79	-1000000	-1000000	-1000000	-1000000	
27.22	3.956	6.854	5.888	348.69	-1000000	-1000000	-1000000	-1000000	
27.24	3.956	8.326	5.888	348.58	-1000000	-1000000	-1000000	-1000000	
27.26	3.956	9.748	5.888	348.47	-1000000	-1000000	-1000000	-1000000	
27.28	3.956	11.86	5.888	348.35	-1000000	-1000000	-1000000	-1000000	
27.30	3.956	15.14	5.888	348.05	-1000000	-1000000	-1000000	-1000000	
27.32	3.956	17.77	5.888	348.36	-1000000	-1000000	-1000000	-1000000	
27.34	3.956	18.80	5.888	348.68	-1000000	-1000000	-1000000	-1000000	
27.36	3.956	20.36	5.888	347.91	-1000000	-1000000	-1000000	-1000000	
27.38	3.956	22.61	5.888	347.61	-1000000	-1000000	-1000000	-1000000	
27.40	3.956	24.29	5.888	348.07	-1000000	-1000000	-1000000	-1000000	
27.42	3.956	26.39	5.888	348.01	-1000000	-1000000	-1000000	-1000000	
27.44	3.956	28.03	5.888	347.82	-1000000	-1000000	-1000000	-1000000	
27.46	3.956	29.98	5.888	347.44	-1000000	-1000000	-1000000	-1000000	
27.48	3.956	31.99	5.888	347.41	-1000000	-1000000	-1000000	-1000000	
27.50	3.956	34.15	5.888	347.67	-1000000	-1000000	-1000000	-1000000	
27.52	3.956	35.84	5.888	347.91	-1000000	-1000000	-1000000	-1000000	
27.54	3.956	37.58	5.888	347.64	-1000000	-1000000	-1000000	-1000000	
27.56	3.956	39.72	5.888	347.26	-1000000	-1000000	-1000000	-1000000	
27.58	3.956	41.70	5.888	346.92	-1000000	-1000000	-1000000	-1000000	
27.60	3.956	43.54	5.888	347.14	-1000000	-1000000	-1000000	-1000000	
27.62	3.956	45.68	5.888	347.46	-1000000	-1000000	-1000000	-1000000	
27.64	3.956	47.69	5.888	347.62	-1000000	-1000000	-1000000	-1000000	
27.66	3.956	49.66	5.888	347.38	-1000000	-1000000	-1000000	-1000000	
27.68	3.956	51.71	5.888	347.19	-1000000	-1000000	-1000000	-1000000	
27.70	3.956	53.62	5.888	347.06	-1000000	-1000000	-1000000	-1000000	
27.72	3.956	55.31	5.888	346.91	-1000000	-1000000	-1000000	-1000000	
27.74	3.956	56.91	5.888	346.86	-1000000	-1000000	-1000000	-1000000	
27.76	3.956	58.90	5.888	346.66	-1000000	-1000000	-1000000	-1000000	
27.78	3.956	61.09	5.888	346.37	-1000000	-1000000	-1000000	-1000000	
27.80	3.956	62.92	5.888	346.22	-1000000	-1000000	-1000000	-1000000	
27.82	3.956	64.65	5.888	346.22	-1000000	-1000000	-1000000	-1000000	
27.84	3.956	66.63	5.888	346.26	-1000000	-1000000	-1000000	-1000000	
27.86	3.956	68.55	5.888	346.36	-1000000	-1000000	-1000000	-1000000	
27.88	3.956	70.60	5.888	346.46	-1000000	-1000000	-1000000	-1000000	
27.90	3.956	72.64	5.888	346.37	-1000000	-1000000	-1000000	-1000000	
27.92	3.956	74.40	5.888	346.10	-1000000	-1000000	-1000000	-1000000	
27.94	3.956	76.17	5.888	345.85	-1000000	-1000000	-1000000	-1000000	
27.96	3.956	78.05	5.888	345.98	-1000000	-1000000	-1000000	-1000000	
27.98	3.956	79.89	5.888	346.10	-1000000	-1000000	-1000000	-1000000	
28.00	3.955	81.55	5.888	345.92	-1000000	-1000000	-1000000	-1000000	
28.02	3.955	83.04	5.888	346.11	-1000000	-1000000	-1000000	-1000000	
28.04	3.955	84.93	5.888	346.17	-1000000	-1000000	-1000000	-1000000	
28.06	3.955	86.77	5.888	345.94	-1000000	-1000000	-1000000	-1000000	
28.08	3.955	88.25	5.888	345.57	-1000000	-1000000	-1000000	-1000000	
28.10	3.955	89.80	5.888	345.62	-1000000	-1000000	-1000000	-1000000	
28.12	3.955	91.79	5.888	346.00	-1000000	-1000000	-1000000	-1000000	
28.14	3.955	93.47	5.888	346.19	-1000000	-1000000	-1000000	-1000000	
28.16	3.955	95.15	5.888	345.97	-1000000	-1000000	-1000000	-1000000	
28.18	3.955	96.80	5.888	345.73	-1000000	-1000000	-1000000	-1000000	
28.20	3.955	98.57	5.888	345.34	-1000000	-1000000	-1000000	-1000000	
28.22	3.955	100.44	5.888	345.10	-1000000	-1000000	-1000000	-1000000	
28.24	3.955	102.21	5.888	344.90	-1000000	-1000000	-1000000	-1000000	
28.26	3.955	103.92	5.888	344.99	-1000000	-1000000	-1000000	-1000000	
28.28	3.955	105.62	5.888	345.15	-1000000	-1000000	-1000000	-1000000	
28.30	3.955	107.13	5.888	345.02	-1000000	-1000000	-1000000	-1000000	
28.32	3.955	109.07	5.888	344.83	-1000000	-1000000	-1000000	-1000000	
28.34	3.955	111.09	5.888	344.82	-1000000	-1000000	-1000000	-1000000	
28.36	3.955	112.96	5.888	344.88	-1000000	-1000000	-1000000	-1000000	
28.38	3.955	114.38	5.888	344.91	-1000000	-1000000	-1000000	-1000000	
28.40	3.955	115.63	5.888	344.86	-1000000	-1000000	-1000000	-1000000	